SpectraSuite Data File
++++++++++++++++++++++++++++++++++++
Date: Wed May 13 21:03:22 PDT 2015
User: schluterlab
Dark Spectrum Present: Yes
Reference Spectrum Present: Yes
Number of Sampled Component Spectra: 1
Spectrometers: USB2E3373
Integration Time (usec): 3000 (USB2E3373)
Spectra Averaged: 3 (USB2E3373)
Boxcar Smoothing: 0 (USB2E3373)
Correct for Electrical Dark: No (USB2E3373)
Strobe/Lamp Enabled: No (USB2E3373)
Correct for Detector Non-linearity: No (USB2E3373)
Correct for Stray Light: No (USB2E3373)
Number of Pixels in Processed Spectrum: 2048
>>>>>Begin Processed Spectral Data<<<<<
178.53	0.000
178.91	400.000
179.29	125.000
179.67	-600.000
180.04	-266.667
180.42	120.000
180.80	1000.000
181.18	200.000
181.56	-275.000
181.94	-375.000
182.31	-9.091
182.69	76.923
183.07	20.000
183.45	250.000
183.83	111.111
184.20	128.571
184.58	366.667
184.96	300.000
185.34	171.429
185.72	0.000
186.09	-600.000
186.47	-80.000
186.85	60.000
187.23	100.000
187.61	300.000
187.98	700.000
188.36	62.500
188.74	0.000
189.12	0.000
189.49	100.000
189.87	33.333
190.25	260.000
190.63	1000.000
191.00	-60.000
191.38	20.000
191.76	125.000
192.14	108.333
192.51	5.263
192.89	266.667
193.27	50.000
193.65	-220.000
194.02	172.727
194.40	100.000
194.78	600.000
195.15	40.000
195.53	-160.000
195.91	75.000
196.29	200.000
196.66	0.000
197.04	-200.000
197.42	40.000
197.79	10.000
198.17	-200.000
198.55	166.667
198.92	100.000
199.30	-66.667
199.68	30.000
200.05	300.000
200.43	16.667
200.81	-1000.000
201.18	-60.000
201.56	50.000
201.94	400.000
202.31	4.348
202.69	14.286
203.07	-266.667
203.44	-120.000
203.82	66.667
204.19	-20.000
204.57	0.000
204.95	-16.667
205.32	0.000
205.70	-250.000
206.08	-125.000
206.45	-200.000
206.83	200.000
207.20	-500.000
207.58	-30.000
207.96	-800.000
208.33	-71.429
208.71	-400.000
209.08	87.500
209.46	125.000
209.84	0.000
210.21	130.000
210.59	1600.000
210.96	120.000
211.34	200.000
211.71	-400.000
212.09	-150.000
212.46	-80.000
212.84	-100.000
213.22	350.000
213.59	200.000
213.97	-50.000
214.34	-400.000
214.72	-30.769
215.09	100.000
215.47	188.889
215.84	700.000
216.22	0.000
216.59	-100.000
216.97	200.000
217.34	222.222
217.72	0.000
218.09	233.333
218.47	600.000
218.84	-57.143
219.22	0.000
219.59	-266.667
219.97	-125.000
220.34	62.500
220.72	-260.000
221.09	0.000
221.47	66.667
221.84	900.000
222.22	0.000
222.59	1400.000
222.97	100.000
223.34	25.000
223.72	100.000
224.09	-200.000
224.46	-54.545
224.84	50.000
225.21	-157.143
225.59	50.000
225.96	116.667
226.34	-70.000
226.71	85.714
227.08	600.000
227.46	-150.000
227.83	-200.000
228.21	18.750
228.58	-150.000
228.95	-35.294
229.33	12.500
229.70	-100.000
230.08	0.000
230.45	-75.000
230.82	-50.000
231.20	100.000
231.57	-75.000
231.95	1400.000
232.32	25.000
232.69	47.059
233.07	-1000.000
233.44	-21.739
233.81	-450.000
234.19	20.833
234.56	-53.333
234.93	20.000
235.31	-5.263
235.68	-92.308
236.05	15.385
236.43	16.667
236.80	-12.121
237.17	-86.667
237.55	-35.294
237.92	-13.793
238.29	-62.963
238.67	-11.111
239.04	-16.129
239.41	-14.894
239.79	-19.149
240.16	-6.977
240.53	1.786
240.91	-7.143
241.28	8.929
241.65	0.000
242.02	-10.526
242.40	-2.899
242.77	-4.348
243.14	-11.538
243.51	2.128
243.89	8.654
244.26	6.604
244.63	-8.654
245.00	-6.250
245.38	-2.521
245.75	5.738
246.12	-7.519
246.49	-2.439
246.87	0.840
247.24	4.054
247.61	-0.662
247.98	-1.282
248.36	2.367
248.73	-8.989
249.10	-1.515
249.47	-5.914
249.84	3.158
250.22	-0.995
250.59	-1.869
250.96	5.000
251.33	-3.828
251.70	5.858
252.08	-0.418
252.45	-0.823
252.82	1.521
253.19	-1.556
253.56	-1.439
253.94	2.135
254.31	-1.761
254.68	1.007
255.05	0.330
255.42	1.049
255.79	1.227
256.16	0.631
256.54	1.270
256.91	-4.747
257.28	-0.629
257.65	-4.140
258.02	0.000
258.39	-1.462
258.76	0.000
259.14	0.852
259.51	-2.809
259.88	0.813
260.25	0.278
260.62	-3.371
260.99	0.265
261.36	0.000
261.73	-1.975
262.10	-1.781
262.47	-2.963
262.85	-1.990
263.22	-1.282
263.59	-1.558
263.96	-1.217
264.33	-2.885
264.70	-0.930
265.07	1.852
265.44	1.149
265.81	-2.288
266.18	-3.189
266.55	-3.930
266.92	-1.907
267.29	1.029
267.66	-0.637
268.03	-1.440
268.40	-1.483
268.77	-0.413
269.14	0.612
269.51	0.205
269.88	-1.629
270.25	1.059
270.62	-3.484
270.99	0.197
271.36	0.794
271.73	0.000
272.10	0.762
272.47	-1.344
272.84	0.197
273.21	-1.370
273.58	-2.254
273.95	-1.509
274.32	0.746
274.69	2.550
275.06	2.120
275.43	0.942
275.80	0.000
276.17	-1.473
276.54	-0.710
276.91	0.174
277.28	-1.986
277.65	0.175
278.02	3.393
278.39	-1.243
278.76	1.171
279.13	-0.172
279.50	0.000
279.87	-1.630
280.23	-0.541
280.60	-2.422
280.97	-0.487
281.34	0.315
281.71	-1.789
282.08	-0.513
282.45	-0.656
282.82	0.958
283.19	1.829
283.56	-0.938
283.92	-0.306
284.29	-1.092
284.66	-0.329
285.03	-2.443
285.40	0.453
285.77	0.300
286.14	-0.152
286.51	1.049
286.87	0.615
287.24	-0.885
287.61	0.753
287.98	0.147
288.35	-2.235
288.72	0.000
289.08	2.564
289.45	-0.734
289.82	0.151
290.19	0.701
290.56	-0.710
290.93	-0.414
291.29	0.410
291.66	-0.683
292.03	0.817
292.40	-0.269
292.77	0.134
293.13	0.139
293.50	-0.131
293.87	0.000
294.24	0.529
294.60	0.000
294.97	1.323
295.34	-1.583
295.71	0.131
296.08	-0.785
296.44	-1.276
296.81	-0.974
297.18	0.375
297.55	0.708
297.91	0.745
298.28	0.121
298.65	0.000
299.02	0.611
299.38	-1.472
299.75	-0.120
300.12	-1.163
300.48	-0.585
300.85	0.577
301.22	-0.697
301.59	-0.587
301.95	-1.510
302.32	-1.634
302.69	-0.565
303.05	-0.997
303.42	-0.227
303.79	0.526
304.15	-0.329
304.52	0.430
304.89	-0.332
305.25	-2.086
305.62	-0.434
305.99	-0.435
306.35	1.881
306.72	0.509
307.09	0.000
307.45	0.532
307.82	-1.158
308.19	-1.254
308.55	-1.126
308.92	1.572
309.29	0.100
309.65	-0.200
310.02	0.696
310.38	-0.102
310.75	-0.888
311.12	0.097
311.48	-0.495
311.85	-0.591
312.22	0.580
312.58	0.097
312.95	-0.995
313.31	0.643
313.68	0.191
314.05	-0.851
314.41	0.480
314.78	0.474
315.14	-0.463
315.51	0.951
315.87	0.556
316.24	1.561
316.61	0.731
316.97	0.370
317.34	0.357
317.70	0.446
318.07	1.242
318.43	0.361
318.80	0.611
319.16	-0.884
319.53	-0.717
319.89	0.813
320.26	1.479
320.62	0.741
320.99	-0.097
321.35	-0.281
321.72	-0.385
322.08	0.461
322.45	1.388
322.81	1.109
323.18	1.163
323.54	0.090
323.91	0.090
324.27	0.450
324.64	-0.784
325.00	-0.875
325.37	1.109
325.73	0.926
326.10	0.841
326.46	0.334
326.83	0.647
327.19	1.057
327.56	1.612
327.92	1.207
328.29	1.419
328.65	1.402
329.01	-0.792
329.38	1.478
329.74	1.888
330.11	0.180
330.47	1.476
330.84	0.903
331.20	1.452
331.56	1.087
331.93	1.120
332.29	1.911
332.66	1.102
333.02	1.129
333.38	0.965
333.75	1.536
334.11	1.562
334.48	1.046
334.84	0.530
335.20	1.286
335.57	-0.087
335.93	0.172
336.29	0.788
336.66	1.282
337.02	0.522
337.38	0.609
337.75	0.603
338.11	0.683
338.47	0.514
338.84	0.515
339.20	1.411
339.56	0.427
339.93	1.037
340.29	2.135
340.65	1.198
341.02	0.915
341.38	0.591
341.74	0.084
342.11	0.495
342.47	0.418
342.83	0.572
343.20	1.354
343.56	1.962
343.92	0.894
344.28	1.055
344.65	0.816
345.01	0.484
345.37	1.069
345.73	1.552
346.10	1.445
346.46	0.976
346.82	0.722
347.19	0.870
347.55	1.616
347.91	0.468
348.27	0.710
348.63	1.362
349.00	0.708
349.36	1.413
349.72	2.011
350.08	0.858
350.45	0.705
350.81	1.408
351.17	2.848
351.53	0.943
351.89	0.318
352.26	-0.541
352.62	0.698
352.98	0.399
353.34	0.966
353.70	1.324
354.07	0.784
354.43	1.166
354.79	0.481
355.15	0.854
355.51	0.683
355.87	1.095
356.24	0.482
356.60	1.016
356.96	0.767
357.32	1.393
357.68	0.535
358.04	0.388
358.40	0.000
358.77	1.911
359.13	0.856
359.49	1.514
359.85	1.137
360.21	0.308
360.57	0.837
360.93	1.062
361.29	1.184
361.66	1.215
362.02	0.074
362.38	0.960
362.74	0.290
363.10	1.735
363.46	0.360
363.82	1.109
364.18	0.725
364.54	0.438
364.90	0.906
365.26	0.991
365.62	0.568
365.98	1.068
366.35	1.348
366.71	0.143
367.07	0.780
367.43	0.906
367.79	1.112
368.15	1.336
368.51	0.141
368.87	1.117
369.23	0.569
369.59	0.423
369.95	-0.218
370.31	0.907
370.67	0.941
371.03	1.633
371.39	1.419
371.75	1.571
372.11	0.997
372.47	0.577
372.83	1.595
373.19	0.432
373.55	1.156
373.91	1.061
374.27	0.899
374.63	0.356
374.99	-0.209
375.35	0.616
375.71	0.679
376.07	1.508
376.42	0.468
376.78	1.057
377.14	1.220
377.50	1.239
377.86	1.062
378.22	1.138
378.58	0.504
378.94	1.250
379.30	0.437
379.66	0.986
380.02	0.551
380.38	0.783
380.74	1.136
381.09	0.603
381.45	1.028
381.81	1.047
382.17	0.693
382.53	0.738
382.89	0.543
383.25	0.494
383.61	1.029
383.97	0.000
384.32	0.756
384.68	0.432
385.04	0.122
385.40	1.308
385.76	1.338
386.12	0.904
386.48	0.502
386.83	0.563
387.19	0.617
387.55	0.552
387.91	0.738
388.27	0.493
388.62	0.125
388.98	0.188
389.34	0.752
389.70	0.549
390.06	0.875
390.42	1.160
390.77	0.641
391.13	1.263
391.49	0.886
391.85	0.831
392.20	0.188
392.56	0.635
392.92	0.995
393.28	0.755
393.64	0.306
393.99	0.734
394.35	1.049
394.71	1.154
395.07	-0.566
395.42	0.853
395.78	0.386
396.14	1.015
396.50	-0.380
396.85	1.402
397.21	0.499
397.57	0.994
397.92	0.240
398.28	1.297
398.64	1.154
399.00	1.283
399.35	0.795
399.71	0.582
400.07	0.542
400.42	0.439
400.78	0.785
401.14	0.307
401.49	0.719
401.85	0.614
402.21	0.372
402.57	2.146
402.92	1.439
403.28	0.938
403.63	0.992
403.99	0.512
404.35	1.122
404.70	0.060
405.06	1.292
405.42	-0.063
405.77	0.518
406.13	1.486
406.49	1.138
406.84	1.648
407.20	0.770
407.55	1.299
407.91	0.596
408.27	0.187
408.62	1.780
408.98	0.925
409.34	0.681
409.69	1.624
410.05	1.119
410.40	0.791
410.76	1.083
411.11	1.182
411.47	1.128
411.83	0.561
412.18	1.134
412.54	1.128
412.89	0.502
413.25	0.826
413.60	0.376
413.96	0.562
414.31	1.110
414.67	0.952
415.03	0.609
415.38	0.462
415.74	0.585
416.09	0.727
416.45	0.957
416.80	0.336
417.16	1.282
417.51	0.871
417.87	0.331
418.22	0.970
418.58	0.657
418.93	1.130
419.29	1.056
419.64	0.891
420.00	0.952
420.35	0.837
420.71	0.305
421.06	0.554
421.42	1.338
421.77	0.925
422.12	0.745
422.48	0.436
422.83	1.122
423.19	0.920
423.54	1.531
423.90	0.475
424.25	1.386
424.61	0.739
424.96	1.005
425.31	1.234
425.67	0.999
426.02	1.590
426.38	2.052
426.73	0.244
427.09	0.813
427.44	0.646
427.79	0.238
428.15	1.529
428.50	0.725
428.85	1.476
429.21	1.463
429.56	1.328
429.92	1.353
430.27	1.278
430.62	0.787
430.98	1.534
431.33	0.215
431.68	1.597
432.04	1.183
432.39	0.982
432.74	0.184
433.10	1.569
433.45	1.243
433.80	0.690
434.16	1.147
434.51	1.359
434.86	0.942
435.22	1.075
435.57	0.799
435.92	0.784
436.28	0.541
436.63	1.097
436.98	1.469
437.34	1.404
437.69	0.885
438.04	1.019
438.39	0.934
438.75	1.192
439.10	0.694
439.45	0.847
439.81	1.232
440.16	1.971
440.51	0.773
440.86	1.245
441.22	0.918
441.57	0.868
441.92	0.829
442.27	1.353
442.63	0.753
442.98	1.100
443.33	0.790
443.68	0.685
444.03	1.341
444.39	1.834
444.74	1.160
445.09	1.101
445.44	1.352
445.79	0.413
446.15	1.498
446.50	1.487
446.85	1.336
447.20	1.411
447.55	1.735
447.91	1.573
448.26	1.315
448.61	1.381
448.96	1.310
449.31	2.056
449.66	1.215
450.02	1.364
450.37	1.293
450.72	0.861
451.07	1.191
451.42	1.622
451.77	1.765
452.12	1.842
452.47	1.743
452.83	0.708
453.18	1.782
453.53	1.639
453.88	1.566
454.23	1.483
454.58	1.471
454.93	1.347
455.28	1.413
455.63	1.185
455.98	0.609
456.34	1.399
456.69	0.575
457.04	1.858
457.39	1.503
457.74	1.317
458.09	1.007
458.44	1.351
458.79	1.483
459.14	1.124
459.49	1.220
459.84	1.071
460.19	0.420
460.54	1.825
460.89	1.577
461.24	1.480
461.59	1.087
461.94	1.896
462.29	1.471
462.64	0.792
462.99	1.878
463.34	1.450
463.69	1.418
464.04	0.840
464.39	1.281
464.74	1.904
465.09	1.178
465.44	2.862
465.79	2.185
466.14	1.311
466.49	0.938
466.84	1.793
467.19	0.637
467.54	1.685
467.89	0.880
468.24	0.983
468.59	0.701
468.94	1.341
469.29	1.124
469.64	1.604
469.99	2.483
470.34	1.011
470.68	1.115
471.03	1.340
471.38	2.156
471.73	1.715
472.08	2.199
472.43	1.979
472.78	1.826
473.13	0.989
473.48	1.305
473.83	1.632
474.17	1.628
474.52	1.489
474.87	1.448
475.22	1.329
475.57	2.287
475.92	1.091
476.27	1.340
476.61	2.378
476.96	1.256
477.31	1.510
477.66	1.638
478.01	1.264
478.36	1.526
478.70	0.806
479.05	1.831
479.40	1.248
479.75	1.488
480.10	2.040
480.45	1.177
480.79	1.244
481.14	1.925
481.49	1.727
481.84	0.943
482.19	1.436
482.53	1.429
482.88	1.870
483.23	1.299
483.58	1.418
483.92	1.070
484.27	1.418
484.62	1.154
484.97	1.410
485.31	2.069
485.66	1.684
486.01	1.560
486.36	1.695
486.70	1.457
487.05	1.631
487.40	1.498
487.75	1.895
488.09	1.627
488.44	1.297
488.79	1.552
489.13	1.233
489.48	1.496
489.83	1.474
490.17	1.180
490.52	1.917
490.87	1.854
491.22	1.978
491.56	1.821
491.91	1.728
492.26	1.644
492.60	1.251
492.95	2.332
493.30	1.599
493.64	1.295
493.99	1.884
494.34	1.445
494.68	1.575
495.03	0.939
495.37	1.363
495.72	1.504
496.07	1.754
496.41	1.544
496.76	2.057
497.11	1.831
497.45	1.654
497.80	2.272
498.14	1.612
498.49	1.160
498.84	1.366
499.18	1.742
499.53	1.477
499.87	0.922
500.22	1.643
500.56	2.106
500.91	1.660
501.26	2.217
501.60	1.078
501.95	1.773
502.29	1.505
502.64	1.832
502.98	1.927
503.33	1.460
503.67	2.142
504.02	1.814
504.36	1.535
504.71	1.270
505.06	1.630
505.40	1.031
505.75	2.187
506.09	2.146
506.44	1.966
506.78	1.828
507.13	1.871
507.47	1.485
507.82	2.355
508.16	2.058
508.51	1.550
508.85	1.970
509.19	1.164
509.54	1.930
509.88	1.452
510.23	2.053
510.57	2.383
510.92	1.724
511.26	1.870
511.61	1.976
511.95	1.268
512.30	1.777
512.64	2.440
512.98	1.884
513.33	1.859
513.67	1.704
514.02	2.338
514.36	1.461
514.70	1.790
515.05	1.872
515.39	1.592
515.74	2.072
516.08	1.652
516.42	1.843
516.77	1.172
517.11	1.705
517.46	1.741
517.80	2.663
518.14	1.102
518.49	1.748
518.83	1.611
519.17	1.928
519.52	1.628
519.86	2.186
520.20	1.637
520.55	2.363
520.89	2.024
521.23	1.987
521.58	2.592
521.92	1.886
522.26	1.431
522.61	1.810
522.95	1.749
523.29	1.397
523.64	2.034
523.98	2.160
524.32	1.134
524.66	0.974
525.01	1.573
525.35	1.712
525.69	1.392
526.04	1.498
526.38	2.868
526.72	1.052
527.06	2.128
527.41	1.721
527.75	1.669
528.09	2.383
528.43	2.103
528.78	2.326
529.12	2.393
529.46	1.472
529.80	1.683
530.15	1.802
530.49	2.022
530.83	1.963
531.17	1.507
531.51	1.686
531.86	1.762
532.20	1.447
532.54	1.655
532.88	1.770
533.22	2.020
533.57	1.788
533.91	2.000
534.25	2.279
534.59	2.574
534.93	1.212
535.27	1.210
535.62	1.316
535.96	2.472
536.30	2.061
536.64	1.025
536.98	1.682
537.32	1.068
537.66	2.045
538.01	1.595
538.35	1.657
538.69	2.207
539.03	2.215
539.37	2.280
539.71	1.978
540.05	1.350
540.39	1.721
540.73	2.025
541.07	1.973
541.42	2.626
541.76	2.030
542.10	1.625
542.44	2.356
542.78	1.874
543.12	2.022
543.46	2.004
543.80	2.037
544.14	1.583
544.48	1.460
544.82	1.748
545.16	2.231
545.50	2.566
545.84	2.384
546.18	1.403
546.52	1.764
546.86	1.555
547.20	1.501
547.54	1.072
547.88	2.362
548.22	2.736
548.56	1.334
548.90	1.488
549.24	1.597
549.58	1.851
549.92	1.834
550.26	3.026
550.60	1.652
550.94	1.418
551.28	1.060
551.62	2.180
551.96	2.709
552.30	0.946
552.64	0.706
552.98	2.060
553.32	1.730
553.66	1.981
554.00	1.224
554.34	1.465
554.68	2.237
555.02	1.871
555.36	1.664
555.69	1.821
556.03	2.716
556.37	1.422
556.71	2.523
557.05	1.771
557.39	1.583
557.73	2.042
558.07	1.809
558.41	2.195
558.75	2.463
559.08	0.481
559.42	2.675
559.76	2.752
560.10	1.614
560.44	2.579
560.78	1.367
561.12	1.402
561.45	1.905
561.79	1.994
562.13	2.110
562.47	1.714
562.81	1.227
563.15	1.346
563.48	1.170
563.82	1.642
564.16	2.708
564.50	2.035
564.84	1.757
565.17	2.980
565.51	1.604
565.85	1.133
566.19	2.252
566.52	1.573
566.86	1.643
567.20	1.772
567.54	1.785
567.88	1.064
568.21	1.467
568.55	2.191
568.89	1.346
569.23	1.742
569.56	2.044
569.90	1.649
570.24	1.227
570.57	2.013
570.91	1.964
571.25	1.656
571.59	1.924
571.92	1.643
572.26	1.752
572.60	1.663
572.93	1.437
573.27	1.792
573.61	1.843
573.95	2.168
574.28	2.088
574.62	1.753
574.96	2.092
575.29	1.881
575.63	1.633
575.97	1.929
576.30	1.597
576.64	1.834
576.98	1.715
577.31	1.840
577.65	1.657
577.98	1.717
578.32	1.573
578.66	1.832
578.99	1.925
579.33	1.824
579.67	1.451
580.00	1.590
580.34	1.915
580.67	1.960
581.01	1.749
581.35	1.712
581.68	1.893
582.02	1.622
582.35	1.948
582.69	2.010
583.02	1.919
583.36	1.625
583.70	1.950
584.03	2.157
584.37	1.776
584.70	1.731
585.04	1.981
585.37	1.798
585.71	1.809
586.04	2.231
586.38	1.394
586.72	1.967
587.05	1.974
587.39	1.928
587.72	1.622
588.06	1.997
588.39	1.931
588.73	2.256
589.06	1.196
589.40	1.754
589.73	1.797
590.07	2.114
590.40	2.120
590.73	2.188
591.07	1.713
591.40	1.870
591.74	1.334
592.07	1.461
592.41	2.016
592.74	1.968
593.08	1.675
593.41	1.895
593.75	1.970
594.08	1.451
594.41	1.828
594.75	1.837
595.08	1.755
595.42	1.682
595.75	2.061
596.09	2.040
596.42	1.511
596.75	1.580
597.09	2.411
597.42	1.884
597.75	2.178
598.09	1.730
598.42	2.103
598.76	1.847
599.09	2.361
599.42	2.077
599.76	2.103
600.09	2.146
600.42	2.072
600.76	2.143
601.09	2.109
601.42	1.803
601.76	2.162
602.09	2.189
602.42	2.187
602.76	1.636
603.09	2.177
603.42	2.239
603.76	1.988
604.09	2.490
604.42	1.172
604.76	2.139
605.09	1.812
605.42	2.744
605.75	1.670
606.09	1.863
606.42	2.203
606.75	1.818
607.09	1.152
607.42	2.014
607.75	1.444
608.08	2.344
608.42	1.828
608.75	2.150
609.08	1.715
609.41	2.186
609.75	1.614
610.08	1.134
610.41	1.992
610.74	1.925
611.07	1.804
611.41	2.456
611.74	2.381
612.07	2.501
612.40	2.216
612.73	1.921
613.07	1.996
613.40	1.982
613.73	2.113
614.06	1.879
614.39	2.057
614.72	2.499
615.06	1.278
615.39	1.656
615.72	1.836
616.05	1.971
616.38	2.864
616.71	1.560
617.05	2.334
617.38	1.294
617.71	1.225
618.04	2.011
618.37	1.703
618.70	1.940
619.03	1.237
619.36	2.491
619.69	2.778
620.03	2.049
620.36	1.670
620.69	1.713
621.02	1.308
621.35	0.899
621.68	1.304
622.01	2.265
622.34	1.427
622.67	2.428
623.00	2.280
623.33	1.945
623.66	1.561
623.99	3.226
624.32	2.201
624.65	2.300
624.99	1.690
625.32	2.240
625.65	1.938
625.98	1.659
626.31	1.796
626.64	0.860
626.97	1.471
627.30	3.165
627.63	1.903
627.96	0.952
628.29	1.302
628.62	2.998
628.95	1.503
629.28	1.379
629.61	1.914
629.94	2.998
630.26	1.773
630.59	2.498
630.92	1.807
631.25	1.957
631.58	1.713
631.91	0.954
632.24	0.439
632.57	0.889
632.90	2.567
633.23	0.839
633.56	2.518
633.89	2.871
634.22	4.711
634.55	2.801
634.88	0.980
635.20	2.750
635.53	1.550
635.86	0.513
636.19	3.102
636.52	0.488
636.85	2.654
637.18	0.731
637.51	1.998
637.83	3.916
638.16	1.067
638.49	0.534
638.82	2.484
639.15	0.798
639.48	2.139
639.81	1.528
640.13	2.535
640.46	2.966
640.79	1.727
641.12	1.331
641.45	1.310
641.77	1.473
642.10	0.908
642.43	2.201
642.76	2.366
643.09	1.597
643.41	3.349
643.74	2.262
644.07	1.942
644.40	2.488
644.73	1.356
645.05	0.000
645.38	1.163
645.71	0.680
646.04	0.168
646.36	0.347
646.69	1.923
647.02	0.182
647.35	1.097
647.67	0.739
648.00	-0.906
648.33	1.695
648.66	-0.835
648.98	1.863
649.31	2.761
649.64	0.313
649.96	2.054
650.29	-0.327
650.62	0.329
650.94	1.724
651.27	3.180
651.60	0.175
651.92	1.971
652.25	3.183
652.58	2.145
652.90	1.515
653.23	-0.849
653.56	0.496
653.88	-1.195
654.21	0.000
654.54	0.831
654.86	0.813
655.19	0.840
655.52	2.386
655.84	2.070
656.17	2.337
656.49	2.918
656.82	2.928
657.15	2.093
657.47	1.700
657.80	1.276
658.13	1.268
658.45	1.952
658.78	1.772
659.10	2.014
659.43	2.140
659.75	1.907
660.08	2.000
660.41	2.028
660.73	2.204
661.06	1.701
661.38	0.581
661.71	1.230
662.03	3.805
662.36	-0.442
662.68	0.430
663.01	2.754
663.33	3.240
663.66	-1.330
663.98	4.045
664.31	0.440
664.63	-2.928
664.96	3.282
665.28	3.648
665.61	-0.432
665.93	-0.428
666.26	3.586
666.58	2.355
666.91	3.812
667.23	0.000
667.56	2.989
667.88	1.168
668.21	2.455
668.53	0.230
668.86	-0.959
669.18	-0.946
669.50	5.069
669.83	1.909
670.15	1.429
670.48	4.368
670.80	2.845
671.13	5.034
671.45	2.740
671.77	0.216
672.10	0.780
672.42	0.954
672.75	1.964
673.07	0.727
673.39	1.679
673.72	3.593
674.04	0.820
674.37	4.065
674.69	0.412
675.01	1.282
675.34	2.407
675.66	3.486
675.98	1.549
676.31	-0.452
676.63	4.082
676.95	0.000
677.28	1.376
677.60	0.980
677.92	2.661
678.25	2.820
678.57	3.870
678.89	-1.066
679.22	1.863
679.54	3.061
679.86	2.734
680.18	0.192
680.51	0.577
680.83	0.000
681.15	2.161
681.48	4.609
681.80	0.818
682.12	0.833
682.44	2.616
682.77	-0.211
683.09	-1.116
683.41	0.698
683.73	1.786
684.06	1.991
684.38	-1.496
684.70	1.018
685.02	-0.413
685.34	2.544
685.67	2.251
685.99	1.779
686.31	2.931
686.63	-0.184
686.96	1.299
687.28	0.399
687.60	4.348
687.92	2.918
688.24	1.600
688.56	1.754
688.89	-0.891
689.21	2.466
689.53	-0.676
689.85	0.899
690.17	1.538
690.49	1.208
690.82	0.955
691.14	1.208
691.46	1.624
691.78	0.000
692.10	1.699
692.42	0.440
692.74	1.957
693.06	1.124
693.39	0.937
693.71	0.889
694.03	3.182
694.35	1.577
694.67	2.250
694.99	0.515
695.31	0.517
695.63	2.927
695.95	0.254
696.27	-3.562
696.59	1.075
696.91	3.352
697.23	0.254
697.56	2.638
697.88	3.950
698.20	3.888
698.52	2.336
698.84	2.392
699.16	2.600
699.48	2.963
699.80	1.034
700.12	-0.268
700.44	-1.408
700.76	3.652
701.08	1.208
701.40	1.198
701.72	2.769
702.04	-2.830
702.36	-2.439
702.68	0.000
703.00	1.754
703.32	2.228
703.64	-2.108
703.96	1.760
704.28	2.108
704.60	3.354
704.91	-3.135
705.23	2.215
705.55	3.103
705.87	2.817
706.19	-0.733
706.51	0.704
706.83	0.318
707.15	-2.134
707.47	1.377
707.79	2.284
708.11	1.285
708.43	1.523
708.74	1.064
709.06	1.070
709.38	0.000
709.70	3.303
710.02	3.115
710.34	-3.000
710.66	0.651
710.98	-0.929
711.29	1.623
711.61	0.000
711.93	-0.323
712.25	-1.049
712.57	-0.351
712.89	-0.733
713.20	-2.128
713.52	1.095
713.84	1.935
714.16	1.294
714.48	2.848
714.80	-4.473
715.11	5.523
715.43	0.000
715.75	3.106
716.07	1.205
716.39	4.040
716.70	2.158
717.02	-4.314
717.34	0.758
717.66	-3.017
717.97	-1.587
718.29	1.969
718.61	-4.292
718.93	-1.163
719.24	1.476
719.56	-2.622
719.88	-1.493
720.20	0.000
720.51	-0.391
720.83	2.724
721.15	-8.130
721.46	1.908
721.78	0.797
722.10	0.000
722.42	-3.629
722.73	0.772
723.05	1.224
723.37	-2.101
723.68	-6.400
724.00	-1.702
724.32	2.092
724.63	1.646
724.95	-1.709
725.27	2.532
725.58	4.938
725.90	-3.347
726.22	-0.362
726.53	-5.098
726.85	2.190
727.16	-0.370
727.48	0.383
727.80	0.781
728.11	-0.410
728.43	1.172
728.74	0.000
729.06	1.200
729.38	0.791
729.69	3.915
730.01	-2.230
730.32	2.214
730.64	2.273
730.96	1.748
731.27	0.669
731.59	2.222
731.90	0.647
732.22	0.641
732.53	-3.041
732.85	-0.336
733.16	3.960
733.48	0.676
733.80	-1.689
734.11	3.041
734.43	0.619
734.74	2.402
735.06	0.576
735.37	1.520
735.69	1.942
736.00	0.330
736.32	4.255
736.63	2.759
736.95	2.740
737.26	1.379
737.58	-0.694
737.89	3.436
738.21	-1.779
738.52	1.141
738.83	4.082
739.15	0.422
739.46	1.556
739.78	-1.056
740.09	0.342
740.41	-3.929
740.72	1.418
741.04	-4.800
741.35	-5.263
741.66	4.000
741.98	3.846
742.29	8.416
742.61	-1.951
742.92	3.947
743.23	-1.887
743.55	3.153
743.86	-0.897
744.18	1.961
744.49	4.061
744.80	4.592
745.12	0.000
745.43	4.739
745.74	4.054
746.06	-0.467
746.37	-0.917
746.68	-3.846
747.00	-0.478
747.31	-6.731
747.62	0.917
747.94	3.057
748.25	-1.376
748.56	8.000
748.88	9.390
749.19	5.238
749.50	0.971
749.82	-4.225
750.13	-3.333
750.44	-3.846
750.75	-1.107
751.07	2.135
751.38	3.901
751.69	-1.158
752.01	-2.344
752.32	-2.692
752.63	3.358
752.94	4.800
753.26	1.255
753.57	-0.417
753.88	2.834
754.19	-0.398
754.51	1.504
754.82	-1.099
755.13	-8.696
755.44	0.407
755.75	-2.000
756.07	-2.583
756.38	1.799
756.69	3.413
757.00	4.984
757.31	-1.294
757.63	-2.778
757.94	3.672
758.25	1.058
758.56	-0.272
758.87	1.190
759.18	1.262
759.50	-2.020
759.81	-0.334
760.12	-0.615
760.43	-1.786
760.74	1.130
761.05	-1.934
761.36	-0.573
761.67	1.813
761.99	0.687
762.30	0.000
762.61	-2.881
762.92	1.282
763.23	3.279
763.54	3.030
763.85	0.816
764.16	-2.033
764.47	0.800
764.78	1.786
765.10	1.967
765.41	1.824
765.72	0.311
766.03	2.310
766.34	-0.385
766.65	-3.347
766.96	0.469
767.27	4.950
767.58	0.000
767.89	4.321
768.20	0.552
768.51	2.010
768.82	0.962
769.13	3.097
769.44	3.347
769.75	-4.274
770.06	0.000
770.37	-2.451
770.68	1.942
770.99	-0.485
771.30	1.681
771.61	-0.408
771.92	3.734
772.23	2.703
772.54	1.105
772.85	-1.744
773.16	8.466
773.47	-5.325
773.78	1.149
774.09	-1.875
774.39	0.621
774.70	4.762
775.01	-5.517
775.32	2.143
775.63	0.000
775.94	-5.263
776.25	-12.800
776.56	0.000
776.87	-2.381
777.18	-2.703
777.48	-2.703
777.79	-3.937
778.10	-2.752
778.41	-0.877
778.72	-0.840
779.03	-4.225
779.34	5.405
779.65	2.817
779.95	-3.311
780.26	-5.755
780.57	9.353
780.88	3.521
781.19	-5.042
781.50	9.396
781.80	0.000
782.11	-2.907
782.42	1.258
782.73	-1.307
783.04	2.069
783.34	-6.107
783.65	-1.342
783.96	2.308
784.27	1.429
784.57	4.255
784.88	-13.462
785.19	14.545
785.50	-2.727
785.81	-6.667
786.11	-5.882
786.42	0.000
786.73	-7.547
787.04	-6.422
787.34	-12.871
787.65	4.167
787.96	6.612
788.26	-1.449
788.57	-4.762
788.88	0.813
789.19	-8.000
789.49	-4.580
789.80	10.606
790.11	-17.925
790.41	-0.990
790.72	1.064
791.03	-11.957
791.33	-2.353
791.64	-3.704
791.95	3.261
792.25	11.364
792.56	5.128
792.87	-2.564
793.17	-8.974
793.48	-4.762
793.79	-7.500
794.09	4.808
794.40	-3.125
794.70	-1.802
795.01	0.000
795.32	-9.565
795.62	-8.696
795.93	-14.151
796.23	-4.040
796.54	1.220
796.85	-2.381
797.15	4.545
797.46	1.449
797.76	2.632
798.07	-1.136
798.37	-4.878
798.68	-12.903
798.99	0.000
799.29	13.253
799.60	3.846
799.90	-6.154
800.21	0.000
800.51	0.000
800.82	1.333
801.12	-45.833
801.43	-5.000
801.73	-5.405
802.04	7.143
802.34	-14.754
802.65	1.493
802.95	-7.273
803.26	-18.966
803.56	6.154
803.87	24.528
804.17	6.452
804.48	-2.941
804.78	-19.512
805.09	18.841
805.39	5.882
805.70	-42.553
806.00	0.000
806.30	7.692
806.61	7.895
806.91	-10.811
807.22	-13.158
807.52	2.273
807.83	-6.780
808.13	-31.818
808.43	-20.000
808.74	-37.931
809.04	-11.111
809.35	-24.490
809.65	3.333
809.95	0.000
810.26	-7.042
810.56	4.167
810.86	-8.163
811.17	-3.846
811.47	-6.383
811.77	-4.167
812.08	3.774
812.38	-9.375
812.69	3.636
812.99	-21.951
813.29	18.919
813.59	-24.324
813.90	1.818
814.20	0.000
814.50	0.000
814.81	14.545
815.11	12.281
815.41	11.628
815.72	10.000
816.02	-37.143
816.32	-29.730
816.62	-10.417
816.93	-8.889
817.23	-6.667
817.53	-50.000
817.84	-13.514
818.14	9.756
818.44	0.000
818.74	-2.041
819.04	-4.878
819.35	11.111
819.65	2.273
819.95	-94.444
820.25	-3.030
820.56	-4.762
820.86	-5.556
821.16	-34.091
821.46	-26.087
821.76	0.000
822.07	15.217
822.37	-6.061
822.67	39.024
822.97	-8.108
823.27	-34.286
823.57	3.448
823.88	-14.706
824.18	-5.556
824.48	-11.429
824.78	-19.048
825.08	7.143
825.38	-18.519
825.69	-12.903
825.99	2.439
826.29	3.704
826.59	-15.625
826.89	-9.677
827.19	-47.826
827.49	-19.444
827.79	-69.565
828.09	-35.484
828.39	12.500
828.70	-12.500
829.00	-41.379
829.30	-21.622
829.60	-58.333
829.90	-37.037
830.20	6.250
830.50	-27.273
830.80	-76.471
831.10	-22.727
831.40	-5.882
831.70	19.231
832.00	0.000
832.30	5.882
832.60	13.514
832.90	1800.000
833.20	-7.143
833.50	-35.000
833.80	0.000
834.10	-25.000
834.40	-68.182
834.70	-113.333
835.00	-10.000
835.30	-37.500
835.60	-47.619
835.90	-47.619
836.20	-8.000
836.50	-50.000
836.80	-68.421
837.10	-8.108
837.40	36.667
837.70	17.391
838.00	33.333
838.30	-10.526
838.60	-160.000
838.90	-180.000
839.19	-8.333
839.49	-61.538
839.79	-26.316
840.09	-250.000
840.39	-80.000
840.69	-36.364
840.99	28.571
841.29	-29.167
841.59	15.385
841.88	-53.333
842.18	-57.143
842.48	30.000
842.78	-257.143
843.08	14.286
843.38	-100.000
843.68	-43.750
843.97	42.857
844.27	-233.333
844.57	-118.182
844.87	-26.667
845.17	31.818
845.47	433.333
845.76	-73.333
846.06	-150.000
846.36	-550.000
846.66	-26.316
846.96	-13.636
847.25	-33.333
847.55	-88.889
847.85	-28.571
848.15	-38.462
848.44	-183.333
848.74	-66.667
849.04	-84.615
849.34	-350.000
849.63	-36.364
849.93	-92.857
850.23	0.000
850.53	-175.000
850.82	11.111
851.12	40.000
851.42	41.176
851.71	-87.500
852.01	0.000
852.31	-76.923
852.61	150.000
852.90	11.765
853.20	33.333
853.50	-12.500
853.79	-92.857
854.09	-500.000
854.39	-70.000
854.68	-25.000
854.98	-52.381
855.28	-16.000
855.57	12.500
855.87	20.833
856.17	-16.000
856.46	-9.375
856.76	5.000
857.05	20.000
857.35	-8.333
857.65	-11.765
857.94	-133.333
858.24	-41.667
858.53	5.000
858.83	-36.364
859.13	8.000
859.42	-57.143
859.72	-62.500
860.01	8.333
860.31	-50.000
860.60	-25.000
860.90	-33.333
861.20	16.667
861.49	106.667
861.79	-12.500
862.08	375.000
862.38	-75.000
862.67	271.429
862.97	200.000
863.26	27.273
863.56	-27.273
863.85	26.316
864.15	-17.647
864.44	-120.000
864.74	-80.000
865.03	-44.444
865.33	-14.286
865.62	142.857
865.92	36.842
866.21	-5.556
866.51	-45.455
866.80	-44.444
867.10	-200.000
867.39	37.500
867.69	-53.333
867.98	-40.000
868.27	70.588
868.57	0.000
868.86	450.000
869.16	-150.000
869.45	-142.857
869.75	600.000
870.04	10.000
870.33	-900.000
870.63	-10.526
870.92	-66.667
871.22	-700.000
871.51	-142.857
871.80	-11.111
872.10	-225.000
>>>>>End Processed Spectral Data<<<<<
