SpectraSuite Data File
++++++++++++++++++++++++++++++++++++
Date: Wed May 13 21:27:43 PDT 2015
User: schluterlab
Dark Spectrum Present: Yes
Reference Spectrum Present: Yes
Number of Sampled Component Spectra: 1
Spectrometers: USB2E3373
Integration Time (usec): 3000 (USB2E3373)
Spectra Averaged: 3 (USB2E3373)
Boxcar Smoothing: 0 (USB2E3373)
Correct for Electrical Dark: No (USB2E3373)
Strobe/Lamp Enabled: No (USB2E3373)
Correct for Detector Non-linearity: No (USB2E3373)
Correct for Stray Light: No (USB2E3373)
Number of Pixels in Processed Spectrum: 2048
>>>>>Begin Processed Spectral Data<<<<<
178.53	0.000
178.91	600.000
179.29	258.333
179.67	-750.000
180.04	-533.333
180.42	100.000
180.80	1100.000
181.18	200.000
181.56	-525.000
181.94	-250.000
182.31	-90.909
182.69	161.538
183.07	-80.000
183.45	266.667
183.83	211.111
184.20	57.143
184.58	-66.667
184.96	166.667
185.34	314.286
185.72	0.000
186.09	-1100.000
186.47	-220.000
186.85	200.000
187.23	-350.000
187.61	500.000
187.98	1900.000
188.36	-187.500
188.74	0.000
189.12	0.000
189.49	-30.000
189.87	175.000
190.25	380.000
190.63	1700.000
191.00	-80.000
191.38	160.000
191.76	600.000
192.14	158.333
192.51	10.526
192.89	533.333
193.27	225.000
193.65	-200.000
194.02	218.182
194.40	150.000
194.78	300.000
195.15	340.000
195.53	-60.000
195.91	0.000
196.29	-33.333
196.66	0.000
197.04	700.000
197.42	0.000
197.79	-30.000
198.17	-162.500
198.55	-466.667
198.92	200.000
199.30	-500.000
199.68	-30.000
200.05	500.000
200.43	300.000
200.81	-1900.000
201.18	-220.000
201.56	-166.667
201.94	575.000
202.31	-26.087
202.69	-71.429
203.07	-366.667
203.44	-240.000
203.82	-100.000
204.19	60.000
204.57	0.000
204.95	-116.667
205.32	0.000
205.70	-500.000
206.08	-350.000
206.45	-300.000
206.83	475.000
207.20	-100.000
207.58	-50.000
207.96	-2000.000
208.33	-128.571
208.71	-1400.000
209.08	187.500
209.46	325.000
209.84	0.000
210.21	240.000
210.59	1900.000
210.96	320.000
211.34	1100.000
211.71	-500.000
212.09	-300.000
212.46	-140.000
212.84	33.333
213.22	-225.000
213.59	-1300.000
213.97	-750.000
214.34	-550.000
214.72	-23.077
215.09	300.000
215.47	211.111
215.84	1200.000
216.22	-150.000
216.59	-250.000
216.97	700.000
217.34	188.889
217.72	0.000
218.09	233.333
218.47	800.000
218.84	-57.143
219.22	-75.000
219.59	-466.667
219.97	-475.000
220.34	-50.000
220.72	-40.000
221.09	0.000
221.47	-200.000
221.84	-900.000
222.22	0.000
222.59	900.000
222.97	-433.333
223.34	-108.333
223.72	-400.000
224.09	-950.000
224.46	-72.727
224.84	-137.500
225.21	-85.714
225.59	-475.000
225.96	-166.667
226.34	-70.000
226.71	-171.429
227.08	700.000
227.46	-87.500
227.83	-500.000
228.21	-37.500
228.58	-400.000
228.95	-76.471
229.33	-25.000
229.70	-137.500
230.08	-92.308
230.45	-237.500
230.82	-66.667
231.20	100.000
231.57	-225.000
231.95	1700.000
232.32	-16.667
232.69	17.647
233.07	-2500.000
233.44	-39.130
233.81	-700.000
234.19	-20.833
234.56	-66.667
234.93	-80.000
235.31	-47.368
235.68	-138.462
236.05	-38.462
236.43	-22.222
236.80	-15.152
237.17	-126.667
237.55	-41.176
237.92	-55.172
238.29	-48.148
238.67	-13.889
239.04	-70.968
239.41	-34.043
239.79	-29.787
240.16	4.651
240.53	-12.500
240.91	-3.571
241.28	-19.643
241.65	-3.226
242.02	-14.474
242.40	-10.145
242.77	-20.290
243.14	-19.231
243.51	-2.128
243.89	-8.654
244.26	1.887
244.63	-10.577
245.00	-6.250
245.38	-6.723
245.75	-6.557
246.12	0.000
246.49	-17.886
246.87	-14.286
247.24	-4.054
247.61	-4.636
247.98	-5.128
248.36	-7.101
248.73	-7.303
249.10	-5.556
249.47	-9.140
249.84	-3.684
250.22	-1.493
250.59	-5.140
250.96	1.364
251.33	-11.005
251.70	-3.766
252.08	-4.184
252.45	-0.412
252.82	2.662
253.19	-2.724
253.56	-2.518
253.94	0.356
254.31	-4.225
254.68	0.336
255.05	-3.960
255.42	-2.448
255.79	-0.307
256.16	-0.631
256.54	-1.905
256.91	-3.165
257.28	-3.459
257.65	-7.006
258.02	-1.760
258.39	-1.170
258.76	-4.360
259.14	-4.261
259.51	-2.809
259.88	-2.439
260.25	-1.667
260.62	-5.899
260.99	0.265
261.36	-0.259
261.73	-1.728
262.10	-4.580
262.47	-1.975
262.85	-3.980
263.22	-0.513
263.59	-3.377
263.96	-0.730
264.33	-2.404
264.70	-1.163
265.07	-0.926
265.44	-0.460
265.81	-4.577
266.18	-4.100
266.55	-3.275
266.92	-0.847
267.29	-2.675
267.66	-1.699
268.03	-0.617
268.40	-0.847
268.77	-1.653
269.14	-1.633
269.51	1.027
269.88	-4.073
270.25	-3.814
270.62	-3.279
270.99	-0.984
271.36	0.000
271.73	0.602
272.10	-2.476
272.47	-1.152
272.84	-1.575
273.21	-2.740
273.58	-2.459
273.95	-0.943
274.32	-1.866
274.69	-2.732
275.06	1.413
275.43	-1.883
275.80	-2.128
276.17	-3.315
276.54	-1.599
276.91	0.523
277.28	-3.430
277.65	-1.399
278.02	0.179
278.39	-2.664
278.76	0.502
279.13	-0.858
279.50	-1.724
279.87	-2.717
280.23	-1.081
280.60	-2.768
280.97	-1.948
281.34	0.158
281.71	-0.813
282.08	-1.026
282.45	-1.311
282.82	-0.479
283.19	0.152
283.56	-1.250
283.92	-1.529
284.29	-0.312
284.66	-0.659
285.03	-3.583
285.40	-0.151
285.77	-1.351
286.14	-1.368
286.51	0.450
286.87	-1.385
287.24	-1.917
287.61	-1.205
287.98	-0.882
288.35	-1.490
288.72	1.578
289.08	-0.142
289.45	-1.175
289.82	-0.303
290.19	0.140
290.56	-1.847
290.93	-0.691
291.29	-0.410
291.66	-0.546
292.03	-0.681
292.40	-0.538
292.77	0.000
293.13	-0.558
293.50	0.784
293.87	0.000
294.24	-0.529
294.60	0.000
294.97	0.132
295.34	-1.451
295.71	-1.708
296.08	-2.225
296.44	-1.276
296.81	-0.244
297.18	-0.750
297.55	-1.297
297.91	-0.994
298.28	0.121
298.65	-0.739
299.02	-0.366
299.38	-0.982
299.75	-0.120
300.12	-1.512
300.48	-1.404
300.85	-0.693
301.22	-1.161
301.59	-1.174
301.95	-2.207
302.32	-0.933
302.69	-0.791
303.05	-0.111
303.42	-0.455
303.79	-0.421
304.15	0.000
304.52	0.323
304.89	-0.997
305.25	-2.086
305.62	-0.217
305.99	-0.218
306.35	0.627
306.72	0.610
307.09	-0.938
307.45	-0.745
307.82	-0.737
308.19	-1.045
308.55	-1.535
308.92	0.884
309.29	-0.601
309.65	-1.399
310.02	0.398
310.38	-0.305
310.75	-1.282
311.12	0.000
311.48	-0.495
311.85	0.000
312.22	-0.097
312.58	-0.386
312.95	-0.697
313.31	1.194
313.68	0.286
314.05	0.662
314.41	0.961
314.78	0.190
315.14	1.204
315.51	0.951
315.87	1.112
316.24	1.469
316.61	1.644
316.97	1.852
317.34	1.515
317.70	1.784
318.07	2.484
318.43	2.078
318.80	2.880
319.16	1.857
319.53	2.867
319.89	2.258
320.26	2.773
320.62	3.614
320.99	3.295
321.35	3.087
321.72	3.369
322.08	2.768
322.45	4.163
322.81	5.360
323.18	4.562
323.54	3.881
323.91	5.330
324.27	5.311
324.64	4.965
325.00	5.862
325.37	5.973
325.73	5.471
326.10	6.056
326.46	6.438
326.83	6.958
327.19	7.480
327.56	7.977
327.92	6.597
328.29	8.681
328.65	8.501
329.01	7.828
329.38	10.087
329.74	8.755
330.11	8.927
330.47	8.854
330.84	9.386
331.20	9.564
331.56	8.062
331.93	9.561
332.29	10.947
332.66	10.254
333.02	10.947
333.38	9.649
333.75	10.495
334.11	10.243
334.48	10.985
334.84	9.717
335.20	9.777
335.57	9.399
335.93	10.481
336.29	10.595
336.66	9.487
337.02	9.826
337.38	10.531
337.75	9.561
338.11	10.333
338.47	9.247
338.84	10.137
339.20	10.406
339.56	10.922
339.93	10.804
340.29	10.589
340.65	11.121
341.02	10.732
341.38	10.811
341.74	9.496
342.11	12.056
342.47	9.791
342.83	10.784
343.20	10.406
343.56	11.038
343.92	11.373
344.28	10.877
344.65	11.184
345.01	11.219
345.37	11.020
345.73	11.601
346.10	10.433
346.46	11.951
346.82	11.236
347.19	10.601
347.55	11.470
347.91	11.068
348.27	10.647
348.63	10.657
349.00	11.557
349.36	11.774
349.72	12.065
350.08	12.402
350.45	10.963
350.81	11.737
351.17	13.472
351.53	11.548
351.89	11.279
352.26	11.583
352.62	12.016
352.98	10.064
353.34	12.319
353.70	12.539
354.07	12.235
354.43	11.975
354.79	11.939
355.15	12.034
355.51	12.301
355.87	12.353
356.24	12.440
356.60	11.415
356.96	12.893
357.32	12.616
357.68	12.758
358.04	12.723
358.40	12.171
358.77	13.685
359.13	11.518
359.49	12.793
359.85	13.647
360.21	13.184
360.57	12.776
360.93	12.215
361.29	13.472
361.66	12.149
362.02	12.898
362.38	13.442
362.74	12.545
363.10	13.449
363.46	13.112
363.82	14.930
364.18	12.618
364.54	13.713
364.90	12.962
365.26	13.093
365.62	13.849
365.98	14.306
366.35	14.326
366.71	13.267
367.07	14.387
367.43	14.146
367.79	14.315
368.15	13.924
368.51	14.135
368.87	14.515
369.23	13.950
369.59	14.024
369.95	13.425
370.31	14.156
370.67	13.324
371.03	14.477
371.39	14.123
371.75	14.571
372.11	15.812
372.47	14.708
372.83	15.534
373.19	14.460
373.55	15.029
373.91	14.993
374.27	15.076
374.63	14.865
374.99	15.390
375.35	15.274
375.71	14.402
376.07	16.724
376.42	14.973
376.78	16.182
377.14	14.915
377.50	16.037
377.86	16.069
378.22	15.740
378.58	15.700
378.94	17.625
379.30	16.615
379.66	16.831
380.02	15.686
380.38	15.904
380.74	16.497
381.09	16.104
381.45	16.747
381.81	17.375
382.17	15.690
382.53	16.862
382.89	16.948
383.25	17.160
383.61	17.797
383.97	16.625
384.32	16.698
384.68	17.582
385.04	15.761
385.40	16.625
385.76	17.032
386.12	17.753
386.48	16.552
386.83	16.959
387.19	17.150
387.55	17.167
387.91	17.589
388.27	17.509
388.62	17.665
388.98	17.397
389.34	17.544
389.70	17.277
390.06	17.938
390.42	18.299
390.77	17.425
391.13	17.361
391.49	17.710
391.85	16.358
392.20	17.857
392.56	17.714
392.92	17.554
393.28	17.664
393.64	18.349
393.99	16.463
394.35	17.531
394.71	18.333
395.07	17.170
395.42	17.916
395.78	17.246
396.14	18.136
396.50	17.882
396.85	17.782
397.21	17.416
397.57	17.702
397.92	17.365
398.28	17.428
398.64	17.911
399.00	18.248
399.35	17.991
399.71	17.123
400.07	17.711
400.42	17.555
400.78	16.858
401.14	17.474
401.49	16.717
401.85	17.260
402.21	17.585
402.57	18.026
402.92	18.335
403.28	17.886
403.63	17.545
403.99	18.234
404.35	17.394
404.70	16.979
405.06	18.144
405.42	16.269
405.77	17.166
406.13	16.914
406.49	17.136
406.84	16.178
407.20	17.111
407.55	17.792
407.91	17.207
408.27	16.469
408.62	17.618
408.98	17.386
409.34	16.584
409.69	17.739
410.05	17.475
410.40	16.129
410.76	16.306
411.11	16.853
411.47	17.452
411.83	16.032
412.18	16.751
412.54	17.419
412.89	17.367
413.25	16.637
413.60	16.677
413.96	16.042
414.31	17.694
414.67	15.873
415.03	16.712
415.38	15.852
415.74	17.219
416.09	17.052
416.45	16.746
416.80	15.705
417.16	16.667
417.51	16.343
417.87	16.997
418.22	15.579
418.58	16.886
418.93	16.384
419.29	17.096
419.64	16.539
420.00	16.127
420.35	16.079
420.71	16.392
421.06	16.913
421.42	17.762
421.77	16.994
422.12	16.905
422.48	16.412
422.83	16.243
423.19	16.216
423.54	16.196
423.90	15.914
424.25	16.291
424.61	16.513
424.96	15.612
425.31	15.760
425.67	16.814
426.02	17.020
426.38	17.351
426.73	16.249
427.09	16.573
427.44	16.970
427.79	15.796
428.15	15.535
428.50	15.347
428.85	16.236
429.21	15.532
429.56	16.472
429.92	16.502
430.27	16.002
430.62	16.684
430.98	16.658
431.33	16.389
431.68	16.507
432.04	15.944
432.39	15.300
432.74	15.512
433.10	15.863
433.45	16.095
433.80	15.402
434.16	15.674
434.51	15.815
434.86	16.667
435.22	15.507
435.57	15.418
435.92	15.862
436.28	15.435
436.63	14.896
436.98	15.805
437.34	16.117
437.69	15.702
438.04	14.431
438.39	15.068
438.75	14.899
439.10	15.211
439.45	15.799
439.81	15.825
440.16	16.058
440.51	14.863
440.86	15.353
441.22	16.179
441.57	15.672
441.92	14.982
442.27	15.152
442.63	15.231
442.98	14.468
443.33	15.858
443.68	13.811
444.03	15.549
444.39	15.716
444.74	14.301
445.09	15.419
445.44	15.944
445.79	15.488
446.15	15.086
446.50	15.363
446.85	15.126
447.20	15.316
447.55	15.557
447.91	14.944
448.26	15.209
448.61	15.190
448.96	15.376
449.31	14.734
449.66	15.674
450.02	14.667
450.37	14.512
450.72	15.040
451.07	13.856
451.42	13.475
451.77	14.425
452.12	14.557
452.47	14.396
452.83	14.269
453.18	14.704
453.53	14.250
453.88	15.000
454.23	15.019
454.58	14.216
454.93	13.727
455.28	14.836
455.63	13.350
455.98	14.547
456.34	13.668
456.69	14.441
457.04	15.046
457.39	14.552
457.74	14.961
458.09	14.396
458.44	13.984
458.79	14.113
459.14	13.539
459.49	13.476
459.84	13.923
460.19	13.926
460.54	13.686
460.89	14.189
461.24	14.180
461.59	14.251
461.94	13.464
462.29	13.419
462.64	13.456
462.99	14.152
463.34	13.329
463.69	13.724
464.04	12.785
464.39	13.484
464.74	13.636
465.09	12.957
465.44	13.412
465.79	14.376
466.14	12.429
466.49	12.551
466.84	12.971
467.19	13.121
467.54	13.221
467.89	13.514
468.24	12.969
468.59	12.365
468.94	13.857
469.29	13.020
469.64	13.180
469.99	13.793
470.34	12.340
470.68	12.268
471.03	12.906
471.38	12.865
471.73	12.689
472.08	12.577
472.43	12.995
472.78	12.170
473.13	11.412
473.48	12.198
473.83	12.116
474.17	11.133
474.52	11.780
474.87	11.580
475.22	11.775
475.57	12.493
475.92	12.214
476.27	12.005
476.61	11.495
476.96	11.536
477.31	11.812
477.66	11.469
478.01	10.330
478.36	11.390
478.70	10.687
479.05	11.820
479.40	11.596
479.75	11.955
480.10	11.576
480.45	12.065
480.79	11.747
481.14	11.398
481.49	11.495
481.84	10.179
482.19	10.931
482.53	11.095
482.88	10.786
483.23	10.395
483.58	11.106
483.92	10.409
484.27	10.567
484.62	10.741
484.97	10.659
485.31	10.560
485.66	10.807
486.01	10.883
486.36	10.925
486.70	10.847
487.05	10.818
487.40	10.878
487.75	10.910
488.09	10.572
488.44	10.480
488.79	10.484
489.13	10.179
489.48	9.577
489.83	10.540
490.17	10.259
490.52	10.986
490.87	9.782
491.22	10.645
491.56	9.391
491.91	10.082
492.26	9.574
492.60	9.764
492.95	9.815
493.30	8.963
493.64	8.969
493.99	9.420
494.34	9.586
494.68	9.737
495.03	9.091
495.37	9.051
495.72	8.672
496.07	9.547
496.41	8.657
496.76	9.735
497.11	9.108
497.45	9.095
497.80	9.541
498.14	9.320
498.49	9.027
498.84	9.464
499.18	8.960
499.53	8.961
499.87	8.540
500.22	9.358
500.56	8.977
500.91	9.557
501.26	9.064
501.60	8.627
501.95	8.481
502.29	8.738
502.64	9.065
502.98	8.622
503.33	8.078
503.67	8.763
504.02	8.186
504.36	7.826
504.71	8.181
505.06	8.660
505.40	8.247
505.75	8.342
506.09	8.278
506.44	8.216
506.78	7.974
507.13	7.952
507.47	8.006
507.82	7.954
508.16	8.813
508.51	7.955
508.85	7.413
509.19	7.831
509.54	8.365
509.88	8.495
510.23	7.842
510.57	7.998
510.92	8.028
511.26	7.811
511.61	7.519
511.95	7.938
512.30	6.996
512.64	8.343
512.98	7.756
513.33	8.000
513.67	8.575
514.02	7.469
514.36	7.584
514.70	8.141
515.05	7.139
515.39	7.252
515.74	6.868
516.08	7.375
516.42	7.431
516.77	6.620
517.11	6.526
517.46	7.983
517.80	7.930
518.14	6.797
518.49	7.655
518.83	7.757
519.17	7.470
519.52	6.755
519.86	7.104
520.20	6.913
520.55	7.027
520.89	7.590
521.23	7.308
521.58	7.016
521.92	7.040
522.26	7.157
522.61	7.046
522.95	7.189
523.29	7.175
523.64	7.120
523.98	6.989
524.32	7.309
524.66	7.403
525.01	7.405
525.35	6.386
525.69	7.290
526.04	6.645
526.38	8.031
526.72	7.692
527.06	7.092
527.41	6.618
527.75	6.142
528.09	6.535
528.43	6.581
528.78	6.525
529.12	7.309
529.46	6.974
529.80	7.120
530.15	6.049
530.49	6.604
530.83	6.093
531.17	6.233
531.51	6.878
531.86	6.640
532.20	6.065
532.54	5.517
532.88	6.535
533.22	6.397
533.57	5.629
533.91	6.516
534.25	7.031
534.59	6.499
534.93	6.760
535.27	7.006
535.62	5.789
535.96	6.766
536.30	6.117
536.64	5.947
536.98	6.027
537.32	6.335
537.66	6.206
538.01	6.727
538.35	6.077
538.69	6.288
539.03	5.570
539.37	5.835
539.71	7.162
540.05	5.938
540.39	5.988
540.73	6.006
541.07	6.054
541.42	6.734
541.76	6.698
542.10	5.755
542.44	5.059
542.78	6.593
543.12	6.402
543.46	4.907
543.80	6.449
544.14	6.194
544.48	4.844
544.82	6.052
545.16	4.395
545.50	5.604
545.84	5.750
546.18	6.241
546.52	6.140
546.86	5.371
547.20	4.789
547.54	5.289
547.88	5.938
548.22	6.059
548.56	5.804
548.90	5.277
549.24	6.042
549.58	5.196
549.92	5.943
550.26	6.790
550.60	4.204
550.94	5.448
551.28	5.753
551.62	5.414
551.96	5.564
552.30	4.512
552.64	5.085
552.98	5.327
553.32	5.263
553.66	5.576
554.00	5.544
554.34	5.275
554.68	5.518
555.02	4.641
555.36	5.068
555.69	4.807
556.03	4.861
556.37	4.908
556.71	5.606
557.05	5.461
557.39	4.974
557.73	5.749
558.07	5.350
558.41	5.223
558.75	4.927
559.08	3.769
559.42	5.507
559.76	4.281
560.10	5.688
560.44	5.674
560.78	4.245
561.12	4.765
561.45	5.170
561.79	5.915
562.13	5.696
562.47	5.357
562.81	4.978
563.15	5.028
563.48	4.611
563.82	4.925
564.16	4.942
564.50	5.088
564.84	4.595
565.17	5.828
565.51	3.944
565.85	4.330
566.19	4.702
566.52	5.046
566.86	4.362
567.20	5.131
567.54	5.584
567.88	4.479
568.21	4.671
568.55	5.164
568.89	4.138
569.23	4.766
569.56	5.131
569.90	5.943
570.24	5.018
570.57	5.561
570.91	5.526
571.25	4.618
571.59	5.111
571.92	5.163
572.26	5.702
572.60	5.482
572.93	5.311
573.27	4.980
573.61	5.557
573.95	5.394
574.28	5.311
574.62	5.307
574.96	5.733
575.29	4.965
575.63	5.321
575.97	5.380
576.30	5.286
576.64	5.083
576.98	5.020
577.31	5.732
577.65	5.169
577.98	5.152
578.32	4.986
578.66	5.432
578.99	5.469
579.33	5.247
579.67	4.786
580.00	4.944
580.34	5.211
580.67	5.365
581.01	5.014
581.35	5.343
581.68	5.451
582.02	5.477
582.35	5.494
582.69	5.449
583.02	5.252
583.36	4.923
583.70	5.363
584.03	5.473
584.37	5.055
584.70	5.353
585.04	5.171
585.37	5.030
585.71	5.306
586.04	5.163
586.38	4.788
586.72	5.001
587.05	5.274
587.39	5.376
587.72	5.106
588.06	5.034
588.39	5.038
588.73	5.114
589.06	4.656
589.40	4.885
589.73	4.995
590.07	5.213
590.40	4.657
590.73	5.186
591.07	5.182
591.40	5.087
591.74	5.158
592.07	4.564
592.41	4.848
592.74	4.977
593.08	4.615
593.41	5.202
593.75	5.039
594.08	4.940
594.41	4.717
594.75	5.247
595.08	5.041
595.42	4.438
595.75	4.736
596.09	4.426
596.42	4.657
596.75	4.520
597.09	4.595
597.42	5.249
597.75	4.933
598.09	4.417
598.42	5.369
598.76	4.828
599.09	5.082
599.42	4.947
599.76	4.807
600.09	4.744
600.42	5.009
600.76	4.841
601.09	5.009
601.42	4.822
601.76	4.942
602.09	5.472
602.42	5.035
602.76	4.656
603.09	4.641
603.42	4.638
603.76	4.832
604.09	4.387
604.42	4.479
604.76	4.321
605.09	5.029
605.42	5.263
605.75	4.411
606.09	4.346
606.42	4.697
606.75	4.545
607.09	4.300
607.42	5.254
607.75	4.070
608.08	5.005
608.42	4.217
608.75	4.778
609.08	4.459
609.41	4.968
609.75	4.236
610.08	4.635
610.41	4.082
610.74	4.764
611.07	4.709
611.41	5.527
611.74	4.865
612.07	4.898
612.40	4.649
612.73	4.281
613.07	3.769
613.40	4.130
613.73	5.146
614.06	4.367
614.39	4.336
614.72	4.553
615.06	3.944
615.39	3.918
615.72	4.212
616.05	3.998
616.38	4.868
616.71	4.379
617.05	5.098
617.38	4.436
617.71	3.676
618.04	4.266
618.37	4.858
618.70	3.946
619.03	3.849
619.36	4.626
619.69	4.459
620.03	3.746
620.36	3.897
620.69	2.427
621.02	3.154
621.35	3.189
621.68	3.586
622.01	3.803
622.34	3.569
622.67	4.307
623.00	4.559
623.33	3.740
623.66	3.717
623.99	4.126
624.32	3.888
624.65	3.783
624.99	3.674
625.32	4.108
625.65	4.109
625.98	3.633
626.31	3.755
626.64	4.557
626.97	4.066
627.30	4.876
627.63	4.152
627.96	3.203
628.29	4.837
628.62	3.868
628.95	3.607
629.28	3.251
629.61	3.349
629.94	4.159
630.26	3.941
630.59	3.397
630.92	2.610
631.25	3.399
631.58	3.854
631.91	3.075
632.24	2.854
632.57	3.000
632.90	4.201
633.23	0.360
633.56	3.957
633.89	4.187
634.22	4.829
634.55	4.994
634.88	3.554
635.20	4.500
635.53	3.488
635.86	2.179
636.19	5.335
636.52	3.293
636.85	3.016
637.18	3.045
637.51	2.996
637.83	3.264
638.16	1.200
638.49	2.003
638.82	2.745
639.15	4.920
639.48	3.610
639.81	3.611
640.13	3.521
640.46	3.672
640.79	3.453
641.12	0.148
641.45	1.601
641.77	3.829
642.10	3.328
642.43	3.145
642.76	2.366
643.09	3.674
643.41	2.552
643.74	1.777
644.07	2.104
644.40	4.146
644.73	2.542
645.05	2.094
645.38	1.827
645.71	1.531
646.04	1.684
646.36	3.819
646.69	3.147
647.02	2.732
647.35	3.108
647.67	2.403
648.00	2.355
648.33	2.203
648.66	0.835
648.98	5.280
649.31	2.301
649.64	1.408
649.96	3.633
650.29	3.268
650.62	3.295
650.94	2.759
651.27	2.473
651.60	4.196
651.92	3.943
652.25	4.858
652.58	2.475
652.90	1.852
653.23	1.698
653.56	1.488
653.88	0.683
654.21	0.853
654.54	1.827
654.86	1.626
655.19	1.401
655.52	3.804
655.84	4.394
656.17	5.423
656.49	7.105
656.82	7.081
657.15	5.453
657.47	3.901
657.80	2.850
658.13	2.973
658.45	4.382
658.78	4.501
659.10	4.396
659.43	4.059
659.75	3.765
660.08	3.379
660.41	4.158
660.73	3.168
661.06	2.891
661.38	2.326
661.71	2.459
662.03	3.594
662.36	0.885
662.68	2.151
663.01	4.025
663.33	2.376
663.66	0.665
663.98	2.921
664.31	2.198
664.63	-2.027
664.96	3.063
665.28	3.433
665.61	0.864
665.93	1.713
666.26	5.274
666.58	1.071
666.91	3.812
667.23	1.843
667.56	2.759
667.88	0.935
668.21	3.125
668.53	1.839
668.86	4.077
669.18	1.418
669.50	2.304
669.83	2.864
670.15	1.429
670.48	2.069
670.80	3.939
671.13	2.288
671.45	1.826
671.77	-0.216
672.10	2.534
672.42	3.053
672.75	0.714
673.07	2.364
673.39	3.358
673.72	4.192
674.04	3.279
674.37	2.033
674.69	3.704
675.01	1.709
675.34	3.939
675.66	6.100
675.98	0.442
676.31	1.357
676.63	4.989
676.95	0.235
677.28	0.917
677.60	1.225
677.92	5.100
678.25	0.434
678.57	5.703
678.89	1.066
679.22	1.449
679.54	0.204
679.86	3.125
680.18	0.192
680.51	0.962
680.83	-0.390
681.15	2.358
681.48	1.403
681.80	1.227
682.12	-1.042
682.44	2.012
682.77	0.632
683.09	2.232
683.41	1.163
683.73	0.670
684.06	0.664
684.38	2.137
684.70	0.611
685.02	4.959
685.34	2.544
685.67	2.814
685.99	3.203
686.31	3.621
686.63	0.919
686.96	2.783
687.28	-0.200
687.60	3.970
687.92	2.529
688.24	2.000
688.56	2.632
688.89	0.000
689.21	2.242
689.53	-1.351
689.85	0.449
690.17	3.956
690.49	-0.725
690.82	0.955
691.14	-0.966
691.46	2.784
691.78	0.440
692.10	0.000
692.42	0.220
692.74	4.348
693.06	0.674
693.39	-1.405
693.71	4.000
694.03	3.409
694.35	3.604
694.67	2.500
694.99	1.804
695.31	-0.258
695.63	2.439
695.95	-0.509
696.27	-2.740
696.59	-1.344
696.91	-0.279
697.23	0.254
697.56	2.638
697.88	3.742
698.20	1.728
698.52	1.168
698.84	0.718
699.16	1.418
699.48	3.457
699.80	5.685
700.12	3.753
700.44	-0.282
700.76	-1.966
701.08	0.604
701.40	-0.299
701.72	0.923
702.04	0.943
702.36	-1.829
702.68	-0.915
703.00	0.877
703.32	0.279
703.64	3.313
703.96	-1.173
704.28	-0.301
704.60	0.915
704.91	2.508
705.23	0.949
705.55	-1.034
705.87	0.352
706.19	0.366
706.51	0.000
706.83	-2.229
707.15	0.305
707.47	1.377
707.79	2.284
708.11	1.799
708.43	3.299
708.74	0.532
709.06	3.476
709.38	1.153
709.70	3.003
710.02	2.181
710.34	-4.000
710.66	-0.651
710.98	-1.548
711.29	0.325
711.61	-1.290
711.93	0.968
712.25	-2.797
712.57	-4.211
712.89	-0.366
713.20	4.610
713.52	-3.650
713.84	0.968
714.16	0.971
714.48	-1.266
714.80	-2.236
715.11	2.616
715.43	2.174
715.75	2.795
716.07	3.614
716.39	1.684
716.70	2.158
717.02	-1.176
717.34	0.379
717.66	-2.155
717.97	-3.571
718.29	1.969
718.61	-2.575
718.93	-3.488
719.24	-1.107
719.56	-3.371
719.88	-2.239
720.20	-1.581
720.51	-1.562
720.83	1.946
721.15	-5.691
721.46	-0.763
721.78	-0.797
722.10	0.398
722.42	-3.629
722.73	-0.772
723.05	0.816
723.37	3.361
723.68	-2.400
724.00	-9.362
724.32	-1.255
724.63	1.646
724.95	-1.709
725.27	1.266
725.58	0.000
725.90	-3.766
726.22	1.812
726.53	-5.490
726.85	0.000
727.16	-1.852
727.48	0.383
727.80	5.078
728.11	0.820
728.43	-0.781
728.74	-2.381
729.06	-4.400
729.38	-1.976
729.69	0.712
730.01	1.115
730.32	-1.107
730.64	-6.061
730.96	2.098
731.27	-3.010
731.59	-0.635
731.90	-0.324
732.22	-1.603
732.53	-0.338
732.85	-0.336
733.16	-0.660
733.48	2.365
733.80	2.027
734.11	1.351
734.43	1.858
734.74	3.003
735.06	0.865
735.37	2.432
735.69	2.265
736.00	0.990
736.32	0.000
736.63	0.690
736.95	3.082
737.26	-1.034
737.58	-0.694
737.89	0.344
738.21	-2.847
738.52	-2.281
738.83	4.898
739.15	0.844
739.46	-4.669
739.78	-2.465
740.09	3.767
740.41	-1.786
740.72	0.000
741.04	-0.800
741.35	-2.193
741.66	0.889
741.98	-2.885
742.29	2.475
742.61	-0.488
742.92	3.509
743.23	-2.358
743.55	1.802
743.86	-3.587
744.18	0.980
744.49	-6.091
744.80	-2.551
745.12	2.804
745.43	1.896
745.74	4.505
746.06	1.402
746.37	-1.835
746.68	-0.962
747.00	0.957
747.31	-0.481
747.62	5.963
747.94	0.000
748.25	-1.376
748.56	5.333
748.88	1.878
749.19	2.381
749.50	-5.825
749.82	-3.756
750.13	-5.000
750.44	-1.538
750.75	-1.845
751.07	5.694
751.38	4.965
751.69	-1.931
752.01	-1.563
752.32	-3.077
752.63	2.239
752.94	-1.200
753.26	-2.929
753.57	2.917
753.88	-2.834
754.19	-1.594
754.51	0.000
754.82	-0.733
755.13	-7.391
755.44	5.691
755.75	0.000
756.07	-2.583
756.38	3.597
756.69	-0.341
757.00	2.181
757.31	0.647
757.63	-0.309
757.94	0.565
758.25	3.175
758.56	1.087
758.87	2.083
759.18	0.631
759.50	1.347
759.81	3.344
760.12	1.538
760.43	-0.893
760.74	0.282
761.05	1.105
761.36	-2.865
761.67	-2.115
761.99	-1.375
762.30	-4.015
762.61	-0.823
762.92	5.556
763.23	2.869
763.54	-0.433
763.85	2.041
764.16	-2.439
764.47	-0.800
764.78	-1.071
765.10	-0.656
765.41	-0.304
765.72	0.932
766.03	-1.320
766.34	3.846
766.65	-2.510
766.96	-7.042
767.27	0.990
767.58	-6.742
767.89	0.000
768.20	0.000
768.51	4.020
768.82	0.962
769.13	5.310
769.44	1.674
769.75	-3.419
770.06	-2.691
770.37	-6.373
770.68	-1.456
770.99	-5.825
771.30	2.941
771.61	0.816
771.92	4.149
772.23	0.000
772.54	-4.972
772.85	-1.744
773.16	1.058
773.47	-11.834
773.78	3.448
774.09	3.750
774.39	0.621
774.70	0.000
775.01	-0.690
775.32	0.714
775.63	-2.256
775.94	-13.534
776.25	-1.600
776.56	-9.091
776.87	2.381
777.18	-5.405
777.48	-3.604
777.79	-3.937
778.10	1.835
778.41	-10.526
778.72	-5.882
779.03	-9.155
779.34	4.730
779.65	-4.930
779.95	-3.974
780.26	-5.036
780.57	1.439
780.88	-0.704
781.19	-7.563
781.50	-4.027
781.80	-6.433
782.11	-2.326
782.42	4.403
782.73	7.843
783.04	-6.207
783.34	-11.450
783.65	-9.396
783.96	-3.846
784.27	-0.714
784.57	-0.709
784.88	-19.231
785.19	8.182
785.50	-5.455
785.81	-16.190
786.11	-2.521
786.42	2.655
786.73	-7.547
787.04	-8.257
787.34	-15.842
787.65	0.833
787.96	-3.306
788.26	0.000
788.57	-3.968
788.88	-8.130
789.19	-1.600
789.49	-7.634
789.80	1.515
790.11	-12.264
790.41	1.980
790.72	-11.702
791.03	-1.087
791.33	-11.765
791.64	-6.173
791.95	1.087
792.25	2.273
792.56	0.000
792.87	-10.256
793.17	-21.795
793.48	-9.524
793.79	-17.500
794.09	7.692
794.40	-6.250
794.70	-9.910
795.01	-4.688
795.32	-3.478
795.62	-17.391
795.93	-4.717
796.23	-3.030
796.54	-10.976
796.85	-10.714
797.15	-16.667
797.46	-10.145
797.76	-5.263
798.07	-10.227
798.37	-9.756
798.68	-16.129
798.99	0.000
799.29	-9.639
799.60	-7.692
799.90	-29.231
800.21	6.061
800.51	-1.333
800.82	2.667
801.12	-39.583
801.43	-23.333
801.73	4.054
802.04	-5.714
802.34	-16.393
802.65	2.985
802.95	-9.091
803.26	-3.448
803.56	0.000
803.87	-5.660
804.17	-14.516
804.48	-8.824
804.78	-39.024
805.09	-4.348
805.39	-4.412
805.70	-55.319
806.00	-26.316
806.30	-5.128
806.61	-10.526
806.91	-10.811
807.22	-14.474
807.52	1.136
807.83	-27.119
808.13	-33.333
808.43	-25.000
808.74	-36.207
809.04	-19.048
809.35	-40.816
809.65	-16.667
809.95	-36.735
810.26	12.676
810.56	-27.083
810.86	-46.939
811.17	9.615
811.47	-21.277
811.77	-47.917
812.08	-11.321
812.38	-40.625
812.69	-9.091
812.99	-26.829
813.29	-35.135
813.59	-32.432
813.90	-20.000
814.20	-7.273
814.50	-10.000
814.81	-20.000
815.11	-8.772
815.41	-18.605
815.72	-35.000
816.02	-25.714
816.32	-16.216
816.62	-12.500
816.93	-13.333
817.23	-26.667
817.53	-44.444
817.84	-16.216
818.14	-31.707
818.44	-8.000
818.74	-8.163
819.04	2.439
819.35	-16.667
819.65	-18.182
819.95	-111.111
820.25	-12.121
820.56	-47.619
820.86	-58.333
821.16	-47.727
821.46	-23.913
821.76	-18.966
822.07	-6.522
822.37	-18.182
822.67	2.439
822.97	-32.432
823.27	-37.143
823.57	-27.586
823.88	-44.118
824.18	-27.778
824.48	-17.143
824.78	-47.619
825.08	-67.857
825.38	-33.333
825.69	-25.806
825.99	-4.878
826.29	-22.222
826.59	-40.625
826.89	-19.355
827.19	-26.087
827.49	-44.444
827.79	-52.174
828.09	-45.161
828.39	-27.083
828.70	-50.000
829.00	-44.828
829.30	-37.838
829.60	-66.667
829.90	7.407
830.20	-53.125
830.50	-45.455
830.80	-182.353
831.10	-81.818
831.40	-26.471
831.70	-23.077
832.00	-24.242
832.30	-14.706
832.60	-16.216
832.90	900.000
833.20	-39.286
833.50	-105.000
833.80	2.632
834.10	-70.833
834.40	-90.909
834.70	-93.333
835.00	-70.000
835.30	-54.167
835.60	-42.857
835.90	-52.381
836.20	-44.000
836.50	-29.167
836.80	-52.632
837.10	-27.027
837.40	-30.000
837.70	-21.739
838.00	-16.667
838.30	-63.158
838.60	-170.000
838.90	-170.000
839.19	-25.000
839.49	-69.231
839.79	-89.474
840.09	-383.333
840.39	-170.000
840.69	-27.273
840.99	-23.810
841.29	-70.833
841.59	-223.077
841.88	-133.333
842.18	-14.286
842.48	-36.667
842.78	-328.571
843.08	-100.000
843.38	-112.500
843.68	-37.500
843.97	-35.714
844.27	-133.333
844.57	-118.182
844.87	-133.333
845.17	-18.182
845.47	733.333
845.76	-60.000
846.06	-133.333
846.36	-1050.000
846.66	-63.158
846.96	-31.818
847.25	-72.222
847.55	-155.556
847.85	-42.857
848.15	-7.692
848.44	-383.333
848.74	-116.667
849.04	-92.308
849.34	-500.000
849.63	-127.273
849.93	-150.000
850.23	10.000
850.53	-250.000
850.82	-33.333
851.12	-86.667
851.42	5.882
851.71	-100.000
852.01	-23.529
852.31	-69.231
852.61	750.000
852.90	-11.765
853.20	-93.333
853.50	-25.000
853.79	-135.714
854.09	-400.000
854.39	-75.000
854.68	-20.000
854.98	-47.619
855.28	-60.000
855.57	-4.167
855.87	-8.333
856.17	-8.000
856.46	-31.250
856.76	-40.000
857.05	0.000
857.35	-150.000
857.65	-70.588
857.94	-91.667
858.24	-125.000
858.53	-40.000
858.83	-127.273
859.13	-8.000
859.42	-100.000
859.72	-125.000
860.01	-8.333
860.31	-212.500
860.60	-37.500
860.90	-266.667
861.20	-100.000
861.49	-13.333
861.79	-31.250
862.08	700.000
862.38	-158.333
862.67	300.000
862.97	350.000
863.26	-181.818
863.56	-27.273
863.85	-10.526
864.15	-47.059
864.44	-260.000
864.74	-160.000
865.03	-155.556
865.33	0.000
865.62	128.571
865.92	-57.895
866.21	-38.889
866.51	-127.273
866.80	-133.333
867.10	-150.000
867.39	6.250
867.69	-33.333
867.98	-130.000
868.27	-35.294
868.57	0.000
868.86	900.000
869.16	-225.000
869.45	-185.714
869.75	350.000
870.04	-50.000
870.33	-1300.000
870.63	5.263
870.92	-133.333
871.22	-1500.000
871.51	-242.857
871.80	-177.778
872.10	-500.000
>>>>>End Processed Spectral Data<<<<<
