SpectraSuite Data File
++++++++++++++++++++++++++++++++++++
Date: Thu May 14 14:51:24 PDT 2015
User: schluterlab
Dark Spectrum Present: Yes
Reference Spectrum Present: Yes
Number of Sampled Component Spectra: 1
Spectrometers: USB2E3373
Integration Time (usec): 3000 (USB2E3373)
Spectra Averaged: 3 (USB2E3373)
Boxcar Smoothing: 0 (USB2E3373)
Correct for Electrical Dark: No (USB2E3373)
Strobe/Lamp Enabled: No (USB2E3373)
Correct for Detector Non-linearity: No (USB2E3373)
Correct for Stray Light: No (USB2E3373)
Number of Pixels in Processed Spectrum: 2048
>>>>>Begin Processed Spectral Data<<<<<
178.53	0.000
178.91	214.286
179.29	-1600.000
179.67	-1300.000
180.04	178.571
180.42	100.000
180.80	180.000
181.18	-1100.000
181.56	100.000
181.94	250.000
182.31	-300.000
182.69	100.000
183.07	-100.000
183.45	50.000
183.83	-66.667
184.20	66.667
184.58	600.000
184.96	-150.000
185.34	-88.889
185.72	-160.000
186.09	155.556
186.47	850.000
186.85	420.000
187.23	-211.111
187.61	-1100.000
187.98	320.000
188.36	300.000
188.74	-100.000
189.12	66.667
189.49	50.000
189.87	-225.000
190.25	-33.333
190.63	0.000
191.00	-100.000
191.38	0.000
191.76	-350.000
192.14	-250.000
192.51	600.000
192.89	66.667
193.27	0.000
193.65	-128.571
194.02	-1600.000
194.40	28.571
194.78	114.286
195.15	0.000
195.53	-36.364
195.91	0.000
196.29	-275.000
196.66	0.000
197.04	-900.000
197.42	-242.857
197.79	-900.000
198.17	-187.500
198.55	-214.286
198.92	-77.778
199.30	-150.000
199.68	9.091
200.05	7.143
200.43	-700.000
200.81	242.857
201.18	0.000
201.56	244.444
201.94	0.000
202.31	566.667
202.69	-188.889
203.07	700.000
203.44	-66.667
203.82	-200.000
204.19	-58.333
204.57	-300.000
204.95	-75.000
205.32	-1400.000
205.70	250.000
206.08	-216.667
206.45	50.000
206.83	220.000
207.20	-50.000
207.58	-220.000
207.96	-150.000
208.33	66.667
208.71	-0.000
209.08	0.000
209.46	0.000
209.84	366.667
210.21	700.000
210.59	950.000
210.96	766.667
211.34	-175.000
211.71	-150.000
212.09	-1100.000
212.46	0.000
212.84	950.000
213.22	-120.000
213.59	-225.000
213.97	-50.000
214.34	-233.333
214.72	183.333
215.09	-350.000
215.47	0.000
215.84	157.143
216.22	900.000
216.59	-180.000
216.97	-100.000
217.34	-250.000
217.72	-62.500
218.09	-325.000
218.47	-175.000
218.84	0.000
219.22	160.000
219.59	-17.647
219.97	10.000
220.34	750.000
220.72	-144.444
221.09	-61.538
221.47	-100.000
221.84	-80.000
222.22	-157.143
222.59	0.000
222.97	-87.500
223.34	-240.000
223.72	-1300.000
224.09	-325.000
224.46	-175.000
224.84	-60.000
225.21	-28.571
225.59	-325.000
225.96	-300.000
226.34	0.000
226.71	200.000
227.08	-600.000
227.46	-80.000
227.83	-75.000
228.21	5.263
228.58	62.500
228.95	550.000
229.33	-83.333
229.70	-100.000
230.08	21.053
230.45	80.000
230.82	-500.000
231.20	0.000
231.57	-133.333
231.95	-127.273
232.32	-63.636
232.69	-5.000
233.07	-425.000
233.44	-5.882
233.81	-100.000
234.19	44.444
234.56	18.182
234.93	3.448
235.31	0.000
235.68	11.111
236.05	-80.000
236.43	15.385
236.80	8.000
237.17	-18.519
237.55	6.061
237.92	-100.000
238.29	-19.355
238.67	-2.273
239.04	22.222
239.41	-26.190
239.79	-15.217
240.16	-11.111
240.53	-10.870
240.91	-25.490
241.28	-14.754
241.65	-2.985
242.02	-8.108
242.40	-18.462
242.77	-6.667
243.14	-17.073
243.51	-1.316
243.89	-15.385
244.26	-7.921
244.63	-4.902
245.00	-6.542
245.38	-2.632
245.75	-27.434
246.12	-1.587
246.49	-8.527
246.87	-7.143
247.24	-4.636
247.61	-1.974
247.98	-5.369
248.36	-8.642
248.73	-11.656
249.10	-8.743
249.47	1.493
249.84	2.618
250.22	-9.326
250.59	-8.333
250.96	-2.727
251.33	-8.163
251.70	2.564
252.08	-1.667
252.45	-0.410
252.82	-5.372
253.19	-2.344
253.56	-2.662
253.94	-8.462
254.31	-4.924
254.68	0.000
255.05	1.954
255.42	-0.340
255.79	-3.236
256.16	-6.623
256.54	-5.298
256.91	-2.295
257.28	-4.918
257.65	-1.592
258.02	-3.245
258.39	-1.709
258.76	0.917
259.14	-2.586
259.51	-2.305
259.88	-1.416
260.25	-0.278
260.62	0.274
260.99	-2.186
261.36	0.536
261.73	-4.509
262.10	-1.648
262.47	-2.413
262.85	-0.758
263.22	-4.156
263.59	-5.263
263.96	-2.813
264.33	-4.348
264.70	-2.963
265.07	-0.239
265.44	1.814
265.81	-2.546
266.18	-0.907
266.55	0.893
266.92	-2.733
267.29	-1.751
267.66	-3.326
268.03	-0.655
268.40	0.000
268.77	-2.506
269.14	-3.744
269.51	-4.167
269.88	-0.410
270.25	-0.805
270.62	-1.266
270.99	0.808
271.36	-0.198
271.73	-1.375
272.10	0.200
272.47	-3.006
272.84	-1.406
273.21	-1.603
273.58	0.202
273.95	-2.692
274.32	-1.901
274.69	-2.515
275.06	-1.832
275.43	-2.588
275.80	-1.058
276.17	-1.481
276.54	-1.119
276.91	-1.252
277.28	-0.904
277.65	-0.898
278.02	-2.941
278.39	-0.362
278.76	-4.218
279.13	-2.305
279.50	-0.687
279.87	-1.252
280.23	-3.169
280.60	-0.508
280.97	-1.151
281.34	-1.528
281.71	1.015
282.08	-0.664
282.45	-1.309
282.82	-1.884
283.19	-2.423
283.56	-2.951
283.92	0.450
284.29	1.264
284.66	-0.328
285.03	-2.083
285.40	-0.155
285.77	-1.703
286.14	1.069
286.51	-1.218
286.87	-0.158
287.24	-1.205
287.61	-2.541
287.98	-2.568
288.35	-1.479
288.72	-0.148
289.08	-0.439
289.45	-1.183
289.82	0.000
290.19	-0.144
290.56	-0.141
290.93	-0.713
291.29	-0.551
291.66	-0.964
292.03	-1.357
292.40	-0.136
292.77	-0.404
293.13	-0.677
293.50	-1.314
293.87	-1.342
294.24	-0.400
294.60	0.379
294.97	-1.745
295.34	-0.128
295.71	-1.513
296.08	-1.163
296.44	-1.103
296.81	-1.096
297.18	-1.370
297.55	-0.708
297.91	-0.830
298.28	-1.303
298.65	-0.238
299.02	-1.417
299.38	-0.801
299.75	0.467
300.12	-1.157
300.48	-1.498
300.85	-0.225
301.22	-0.336
301.59	-1.712
301.95	-0.339
302.32	-0.222
302.69	-0.657
303.05	-0.326
303.42	-1.220
303.79	-0.833
304.15	-1.052
304.52	-0.740
304.89	-0.314
305.25	0.104
305.62	-1.149
305.99	-1.031
306.35	-0.806
306.72	-0.414
307.09	-1.015
307.45	0.207
307.82	-0.505
308.19	-0.605
308.55	-0.096
308.92	-0.389
309.29	-0.096
309.65	-1.365
310.02	-1.386
310.38	-1.280
310.75	-0.485
311.12	-0.384
311.48	-1.173
311.85	-0.855
312.22	-1.328
312.58	-1.315
312.95	-1.816
313.31	-0.090
313.68	0.275
314.05	0.361
314.41	0.546
314.78	0.272
315.14	-0.272
315.51	1.016
315.87	0.540
316.24	-0.274
316.61	1.332
316.97	-0.814
317.34	-1.235
317.70	-0.437
318.07	-0.882
318.43	0.935
318.80	1.087
319.16	-0.773
319.53	-1.371
319.89	-1.227
320.26	0.979
320.62	-0.887
320.99	-1.016
321.35	-0.277
321.72	-0.279
322.08	-0.812
322.45	-0.361
322.81	-0.361
323.18	-0.442
323.54	-0.776
323.91	-0.089
324.27	0.258
324.64	0.168
325.00	0.995
325.37	0.901
325.73	-0.331
326.10	0.973
326.46	0.733
326.83	0.881
327.19	-0.630
327.56	0.316
327.92	0.629
328.29	-0.242
328.65	-0.503
329.01	-0.169
329.38	0.842
329.74	0.342
330.11	0.771
330.47	0.337
330.84	-0.086
331.20	1.750
331.56	0.260
331.93	0.837
332.29	1.017
332.66	1.578
333.02	1.005
333.38	0.419
333.75	1.094
334.11	0.584
334.48	0.413
334.84	0.510
335.20	-0.672
335.57	0.000
335.93	1.405
336.29	-0.499
336.66	0.421
337.02	0.084
337.38	0.595
337.75	1.157
338.11	0.505
338.47	0.496
338.84	0.592
339.20	0.253
339.56	0.741
339.93	0.821
340.29	1.208
340.65	0.406
341.02	1.756
341.38	0.808
341.74	-0.242
342.11	0.885
342.47	0.556
342.83	1.288
343.20	0.818
343.56	-0.080
343.92	0.240
344.28	1.797
344.65	1.705
345.01	1.638
345.37	1.555
345.73	0.234
346.10	1.248
346.46	0.554
346.82	1.573
347.19	0.535
347.55	1.821
347.91	0.446
348.27	1.062
348.63	0.838
349.00	0.820
349.36	1.190
349.72	1.339
350.08	1.634
350.45	0.760
350.81	0.151
351.17	1.429
351.53	0.682
351.89	1.898
352.26	0.373
352.62	1.194
352.98	0.611
353.34	0.075
353.70	0.077
354.07	0.075
354.43	0.607
354.79	0.748
355.15	0.883
355.51	1.608
355.87	0.673
356.24	0.837
356.60	1.478
356.96	0.964
357.32	0.967
357.68	0.805
358.04	0.299
358.40	0.373
358.77	1.170
359.13	0.148
359.49	-0.372
359.85	0.435
360.21	0.933
360.57	0.503
360.93	0.635
361.29	0.561
361.66	0.217
362.02	2.088
362.38	0.914
362.74	0.070
363.10	1.513
363.46	0.762
363.82	0.497
364.18	0.211
364.54	0.968
364.90	0.535
365.26	0.138
365.62	1.000
365.98	1.498
366.35	1.074
366.71	1.293
367.07	0.677
367.43	0.788
367.79	1.128
368.15	1.204
368.51	0.338
368.87	0.784
369.23	0.933
369.59	0.546
369.95	0.811
370.31	1.283
370.67	0.963
371.03	0.831
371.39	0.537
371.75	1.376
372.11	0.745
372.47	1.625
372.83	1.440
373.19	1.534
373.55	0.136
373.91	0.204
374.27	1.294
374.63	0.812
374.99	1.061
375.35	1.688
375.71	0.710
376.07	0.839
376.42	0.945
376.78	1.305
377.14	1.372
377.50	0.822
377.86	2.278
378.22	1.677
378.58	1.189
378.94	1.350
379.30	1.406
379.66	1.646
380.02	1.558
380.38	1.671
380.74	1.127
381.09	1.161
381.45	2.159
381.81	1.698
382.17	2.019
382.53	1.813
382.89	2.257
383.25	1.583
383.61	0.984
383.97	0.942
384.32	1.675
384.68	0.928
385.04	2.198
385.40	2.593
385.76	2.462
386.12	2.154
386.48	2.294
386.83	1.967
387.19	0.985
387.55	1.232
387.91	1.256
388.27	1.905
388.62	1.546
388.98	1.748
389.34	2.062
389.70	1.569
390.06	2.013
390.42	1.867
390.77	2.408
391.13	1.643
391.49	1.630
391.85	1.394
392.20	2.313
392.56	2.658
392.92	2.454
393.28	2.101
393.64	1.564
393.99	2.092
394.35	1.811
394.71	2.096
395.07	1.437
395.42	1.885
395.78	2.316
396.14	2.674
396.50	1.544
396.85	1.849
397.21	1.538
397.57	2.591
397.92	2.119
398.28	2.173
398.64	1.430
399.00	1.675
399.35	2.147
399.71	1.739
400.07	2.190
400.42	1.979
400.78	1.910
401.14	2.561
401.49	1.990
401.85	2.093
402.21	2.260
402.57	2.582
402.92	1.418
403.28	2.166
403.63	1.253
403.99	2.078
404.35	2.388
404.70	2.153
405.06	2.283
405.42	2.225
405.77	2.672
406.13	2.593
406.49	1.858
406.84	2.604
407.20	2.348
407.55	1.696
407.91	2.200
408.27	2.650
408.62	2.385
408.98	1.567
409.34	0.704
409.69	1.854
410.05	2.462
410.40	2.378
410.76	2.075
411.11	2.455
411.47	2.027
411.83	2.587
412.18	1.867
412.54	2.430
412.89	3.027
413.25	2.709
413.60	2.412
413.96	1.923
414.31	2.493
414.67	1.968
415.03	2.277
415.38	2.018
415.74	2.077
416.09	2.159
416.45	2.567
416.80	2.387
417.16	2.490
417.51	2.491
417.87	2.269
418.22	2.156
418.58	2.107
418.93	3.085
419.29	1.850
419.64	1.741
420.00	1.899
420.35	3.144
420.71	2.010
421.06	2.128
421.42	2.523
421.77	2.154
422.12	2.696
422.48	1.843
422.83	2.574
423.19	2.599
423.54	2.489
423.90	2.319
424.25	2.667
424.61	2.239
424.96	2.801
425.31	2.919
425.67	2.093
426.02	2.103
426.38	2.181
426.73	2.511
427.09	2.941
427.44	2.458
427.79	1.990
428.15	2.055
428.50	2.191
428.85	2.354
429.21	2.926
429.56	2.073
429.92	2.506
430.27	2.120
430.62	2.296
430.98	2.263
431.33	2.053
431.68	2.059
432.04	1.930
432.39	2.517
432.74	2.283
433.10	2.380
433.45	2.285
433.80	2.843
434.16	2.738
434.51	2.107
434.86	2.389
435.22	2.497
435.57	2.535
435.92	2.393
436.28	2.332
436.63	1.966
436.98	2.093
437.34	2.255
437.69	2.201
438.04	1.798
438.39	2.010
438.75	2.546
439.10	3.013
439.45	2.068
439.81	2.429
440.16	2.091
440.51	2.174
440.86	1.890
441.22	2.733
441.57	2.201
441.92	2.425
442.27	2.374
442.63	3.030
442.98	3.415
443.33	2.893
443.68	3.072
444.03	2.634
444.39	3.282
444.74	3.318
445.09	2.940
445.44	1.897
445.79	2.969
446.15	3.237
446.50	3.152
446.85	3.307
447.20	3.191
447.55	2.615
447.91	2.304
448.26	2.431
448.61	2.710
448.96	2.092
449.31	2.545
449.66	1.961
450.02	2.743
450.37	2.557
450.72	3.068
451.07	3.075
451.42	2.022
451.77	2.112
452.12	2.991
452.47	2.674
452.83	2.421
453.18	2.335
453.53	2.470
453.88	2.816
454.23	2.938
454.58	2.554
454.93	2.002
455.28	3.010
455.63	3.354
455.98	2.905
456.34	2.886
456.69	2.234
457.04	2.482
457.39	2.550
457.74	2.629
458.09	2.910
458.44	3.017
458.79	2.940
459.14	2.884
459.49	2.547
459.84	2.886
460.19	2.443
460.54	2.215
460.89	2.647
461.24	1.839
461.59	3.099
461.94	1.768
462.29	2.352
462.64	3.018
462.99	2.762
463.34	2.271
463.69	2.989
464.04	3.280
464.39	2.915
464.74	2.851
465.09	2.480
465.44	2.521
465.79	3.384
466.14	3.283
466.49	3.053
466.84	2.094
467.19	2.775
467.54	2.174
467.89	2.701
468.24	2.493
468.59	1.795
468.94	1.807
469.29	2.400
469.64	1.462
469.99	2.868
470.34	2.475
470.68	2.461
471.03	2.292
471.38	2.812
471.73	1.756
472.08	2.665
472.43	2.468
472.78	3.023
473.13	2.276
473.48	2.840
473.83	2.844
474.17	2.227
474.52	2.225
474.87	2.602
475.22	2.535
475.57	2.856
475.92	2.638
476.27	2.982
476.61	2.440
476.96	1.721
477.31	3.020
477.66	2.466
478.01	2.694
478.36	2.193
478.70	2.562
479.05	3.016
479.40	2.369
479.75	3.602
480.10	2.748
480.45	3.054
480.79	2.902
481.14	2.665
481.49	2.590
481.84	2.916
482.19	2.323
482.53	2.711
482.88	3.101
483.23	2.312
483.58	2.751
483.92	1.773
484.27	2.244
484.62	2.599
484.97	2.838
485.31	2.077
485.66	2.619
486.01	2.752
486.36	2.847
486.70	2.987
487.05	3.071
487.40	3.042
487.75	3.104
488.09	2.959
488.44	2.651
488.79	2.395
489.13	2.462
489.48	2.524
489.83	2.696
490.17	2.147
490.52	2.709
490.87	2.496
491.22	2.643
491.56	3.200
491.91	3.096
492.26	2.683
492.60	2.449
492.95	3.335
493.30	3.003
493.64	2.891
493.99	3.026
494.34	2.178
494.68	2.741
495.03	2.247
495.37	2.708
495.72	1.905
496.07	2.542
496.41	2.531
496.76	2.502
497.11	2.420
497.45	3.151
497.80	2.621
498.14	2.766
498.49	2.390
498.84	2.697
499.18	2.654
499.53	3.004
499.87	3.165
500.22	1.870
500.56	2.519
500.91	2.334
501.26	2.909
501.60	2.740
501.95	3.040
502.29	2.413
502.64	2.755
502.98	2.890
503.33	2.203
503.67	2.224
504.02	2.715
504.36	3.083
504.71	2.389
505.06	2.729
505.40	2.834
505.75	3.005
506.09	2.486
506.44	2.553
506.78	3.119
507.13	2.905
507.47	2.605
507.82	3.267
508.16	2.772
508.51	2.438
508.85	2.078
509.19	2.890
509.54	3.074
509.88	3.157
510.23	3.108
510.57	3.625
510.92	2.709
511.26	2.646
511.61	1.642
511.95	2.489
512.30	3.447
512.64	2.349
512.98	3.202
513.33	3.780
513.67	2.805
514.02	2.555
514.36	2.762
514.70	2.135
515.05	2.868
515.39	3.045
515.74	2.757
516.08	2.694
516.42	3.140
516.77	2.734
517.11	3.043
517.46	2.810
517.80	2.833
518.14	3.156
518.49	2.440
518.83	3.459
519.17	3.069
519.52	3.197
519.86	3.221
520.20	3.035
520.55	2.410
520.89	3.435
521.23	2.792
521.58	3.220
521.92	2.550
522.26	2.520
522.61	2.604
522.95	3.114
523.29	2.701
523.64	2.466
523.98	3.137
524.32	3.324
524.66	2.675
525.01	2.718
525.35	2.814
525.69	2.900
526.04	3.100
526.38	2.586
526.72	2.710
527.06	2.815
527.41	3.149
527.75	3.029
528.09	2.243
528.43	2.664
528.78	2.775
529.12	2.408
529.46	3.035
529.80	3.146
530.15	3.072
530.49	2.017
530.83	2.715
531.17	2.389
531.51	2.708
531.86	2.885
532.20	3.110
532.54	2.454
532.88	2.788
533.22	3.241
533.57	3.289
533.91	3.535
534.25	3.392
534.59	3.218
534.93	2.207
535.27	2.141
535.62	3.582
535.96	2.731
536.30	2.056
536.64	2.703
536.98	3.137
537.32	2.654
537.66	2.682
538.01	2.296
538.35	2.375
538.69	2.584
539.03	2.820
539.37	3.004
539.71	3.724
540.05	3.657
540.39	2.751
540.73	2.793
541.07	2.575
541.42	2.481
541.76	3.025
542.10	3.197
542.44	2.253
542.78	2.859
543.12	2.861
543.46	2.320
543.80	2.458
544.14	2.753
544.48	3.369
544.82	2.753
545.16	2.922
545.50	2.936
545.84	2.633
546.18	3.519
546.52	2.484
546.86	2.830
547.20	2.799
547.54	2.247
547.88	2.773
548.22	2.515
548.56	2.224
548.90	1.851
549.24	2.675
549.58	1.893
549.92	3.061
550.26	2.848
550.60	2.489
550.94	3.234
551.28	2.376
551.62	2.965
551.96	3.236
552.30	3.378
552.64	3.174
552.98	2.558
553.32	2.894
553.66	3.023
554.00	3.090
554.34	2.896
554.68	3.163
555.02	3.154
555.36	2.893
555.69	2.691
556.03	3.153
556.37	3.129
556.71	3.171
557.05	3.514
557.39	1.924
557.73	2.840
558.07	2.450
558.41	2.658
558.75	2.907
559.08	1.949
559.42	1.989
559.76	2.917
560.10	2.746
560.44	3.100
560.78	3.000
561.12	2.833
561.45	2.859
561.79	3.114
562.13	2.588
562.47	2.836
562.81	3.038
563.15	2.841
563.48	2.362
563.82	3.144
564.16	2.180
564.50	2.682
564.84	2.537
565.17	3.000
565.51	2.014
565.85	2.316
566.19	2.592
566.52	2.106
566.86	2.886
567.20	2.936
567.54	3.027
567.88	3.109
568.21	2.717
568.55	2.494
568.89	2.542
569.23	3.338
569.56	2.462
569.90	3.100
570.24	2.901
570.57	2.598
570.91	2.694
571.25	3.153
571.59	2.978
571.92	2.639
572.26	2.726
572.60	2.512
572.93	3.062
573.27	2.810
573.61	3.415
573.95	2.816
574.28	2.943
574.62	3.001
574.96	2.779
575.29	2.754
575.63	2.818
575.97	3.138
576.30	2.911
576.64	2.959
576.98	2.893
577.31	3.088
577.65	2.786
577.98	2.993
578.32	2.703
578.66	2.714
578.99	2.826
579.33	3.024
579.67	2.992
580.00	2.900
580.34	3.294
580.67	2.824
581.01	2.791
581.35	3.059
581.68	3.035
582.02	3.078
582.35	3.157
582.69	3.045
583.02	2.878
583.36	2.855
583.70	2.727
584.03	3.096
584.37	2.913
584.70	2.934
585.04	2.813
585.37	2.828
585.71	3.064
586.04	2.862
586.38	2.786
586.72	2.331
587.05	2.277
587.39	2.817
587.72	2.847
588.06	3.143
588.39	3.087
588.73	2.381
589.06	2.652
589.40	2.581
589.73	2.796
590.07	3.183
590.40	3.279
590.73	2.969
591.07	2.792
591.40	2.799
591.74	2.623
592.07	3.045
592.41	2.721
592.74	3.124
593.08	3.025
593.41	3.208
593.75	2.787
594.08	3.363
594.41	3.205
594.75	2.956
595.08	2.355
595.42	2.825
595.75	2.486
596.09	3.016
596.42	2.831
596.75	3.088
597.09	3.030
597.42	2.940
597.75	2.940
598.09	2.976
598.42	2.895
598.76	2.369
599.09	2.955
599.42	3.017
599.76	2.608
600.09	3.170
600.42	2.769
600.76	2.741
601.09	2.821
601.42	2.712
601.76	2.724
602.09	2.609
602.42	2.435
602.76	2.546
603.09	2.643
603.42	2.818
603.76	2.572
604.09	2.981
604.42	2.862
604.76	2.930
605.09	2.952
605.42	2.871
605.75	2.538
606.09	2.389
606.42	2.700
606.75	2.699
607.09	3.034
607.42	3.314
607.75	2.853
608.08	2.960
608.42	2.297
608.75	3.234
609.08	2.250
609.41	2.779
609.75	2.545
610.08	2.726
610.41	3.016
610.74	2.647
611.07	2.575
611.41	2.735
611.74	3.279
612.07	3.319
612.40	2.424
612.73	2.200
613.07	2.836
613.40	2.743
613.73	2.648
614.06	2.699
614.39	2.527
614.72	2.475
615.06	2.358
615.39	2.610
615.72	2.085
616.05	2.623
616.38	2.725
616.71	3.239
617.05	2.290
617.38	3.210
617.71	3.078
618.04	3.076
618.37	2.951
618.70	2.545
619.03	2.509
619.36	2.836
619.69	2.242
620.03	1.946
620.36	2.025
620.69	2.838
621.02	2.822
621.35	2.322
621.68	3.037
622.01	2.562
622.34	2.162
622.67	2.199
623.00	0.742
623.33	2.522
623.66	2.789
623.99	2.304
624.32	3.704
624.65	2.124
624.99	2.731
625.32	3.266
625.65	3.169
625.98	2.169
626.31	2.339
626.64	3.004
626.97	2.026
627.30	1.367
627.63	1.425
627.96	3.904
628.29	2.023
628.62	2.015
628.95	2.103
629.28	1.954
629.61	3.030
629.94	2.176
630.26	1.780
630.59	2.073
630.92	1.299
631.25	2.415
631.58	2.166
631.91	1.500
632.24	2.113
632.57	2.372
632.90	2.207
633.23	1.837
633.56	1.633
633.89	2.376
634.22	3.222
634.55	1.670
634.88	2.165
635.20	3.767
635.53	2.373
635.86	1.517
636.19	4.136
636.52	2.215
636.85	2.145
637.18	2.183
637.51	1.075
637.83	2.326
638.16	2.189
638.49	1.291
638.82	2.029
639.15	0.916
639.48	3.695
639.81	2.309
640.13	1.885
640.46	1.455
640.79	1.716
641.12	2.236
641.45	1.255
641.77	3.851
642.10	1.444
642.43	1.729
642.76	1.491
643.09	3.151
643.41	0.980
643.74	0.966
644.07	2.759
644.40	0.566
644.73	1.161
645.05	0.441
645.38	1.727
645.71	1.173
646.04	2.439
646.36	0.730
646.69	1.687
647.02	3.364
647.35	3.511
647.67	2.576
648.00	1.752
648.33	1.952
648.66	0.713
648.98	1.769
649.31	2.030
649.64	1.859
649.96	1.857
650.29	1.391
650.62	2.122
650.94	0.450
651.27	0.898
651.60	1.023
651.92	0.000
652.25	2.605
652.58	2.476
652.90	-0.581
653.23	2.254
653.56	1.141
653.88	4.213
654.21	4.225
654.54	1.879
654.86	1.416
655.19	1.506
655.52	2.314
655.84	2.678
656.17	3.410
656.49	4.677
656.82	5.150
657.15	3.930
657.47	2.994
657.80	2.180
658.13	1.713
658.45	1.990
658.78	2.559
659.10	2.155
659.43	2.424
659.75	2.229
660.08	1.681
660.41	1.654
660.73	1.368
661.06	-0.441
661.38	1.435
661.71	0.345
662.03	1.587
662.36	3.399
662.68	1.501
663.01	1.416
663.33	0.189
663.66	2.930
663.98	0.577
664.31	2.814
664.63	-0.193
664.96	2.178
665.28	0.544
665.61	3.671
665.93	0.536
666.26	0.538
666.58	-0.738
666.91	2.617
667.23	1.333
667.56	2.959
667.88	2.600
668.21	-0.781
668.53	0.193
668.86	3.733
669.18	1.018
669.50	1.590
669.83	-1.000
670.15	0.197
670.48	0.794
670.80	1.530
671.13	0.756
671.45	0.591
671.77	1.695
672.10	-0.333
672.42	-0.485
672.75	-1.997
673.07	1.045
673.39	1.233
673.72	0.503
674.04	3.793
674.37	1.789
674.69	1.587
675.01	-1.714
675.34	-0.573
675.66	1.311
675.98	1.679
676.31	1.563
676.63	2.091
676.95	1.916
677.28	-0.403
677.60	-1.772
677.92	2.111
678.25	1.828
678.57	3.203
678.89	2.560
679.22	-0.523
679.54	2.222
679.86	-1.186
680.18	0.995
680.51	1.730
680.83	1.473
681.15	-1.207
681.48	1.554
681.80	2.245
682.12	-0.350
682.44	1.002
682.77	1.950
683.09	-0.379
683.41	0.000
683.73	0.759
684.06	-0.185
684.38	-1.073
684.70	0.898
685.02	1.721
685.34	0.333
685.67	0.000
685.99	1.227
686.31	0.436
686.63	0.632
686.96	0.789
687.28	1.303
687.60	-0.505
687.92	0.000
688.24	2.170
688.56	-1.034
688.89	1.452
689.21	1.957
689.53	-1.765
689.85	-0.197
690.17	0.000
690.49	-0.996
690.82	-0.198
691.14	-1.822
691.46	0.574
691.78	3.683
692.10	-0.734
692.42	-0.536
692.74	0.726
693.06	-0.741
693.39	1.328
693.71	-0.564
694.03	1.859
694.35	2.095
694.67	1.848
694.99	1.277
695.31	-0.662
695.63	1.299
695.95	0.414
696.27	1.099
696.59	2.212
696.91	2.027
697.23	3.077
697.56	0.611
697.88	0.758
698.20	0.753
698.52	1.894
698.84	-1.040
699.16	0.612
699.48	1.046
699.80	0.638
700.12	1.310
700.44	-0.230
700.76	1.663
701.08	1.211
701.40	1.295
701.72	2.488
702.04	-0.802
702.36	-0.524
702.68	-1.222
703.00	-0.489
703.32	-2.217
703.64	1.956
703.96	-0.239
704.28	-1.229
704.60	1.013
704.91	1.276
705.23	-4.110
705.55	-0.557
705.87	-0.909
706.19	0.920
706.51	-3.614
706.83	0.288
707.15	-1.587
707.47	-1.869
707.79	0.437
708.11	-0.424
708.43	-1.290
708.74	-4.241
709.06	-0.928
709.38	1.643
709.70	2.730
710.02	-0.258
710.34	1.862
710.66	-1.397
710.98	-1.913
711.29	-2.473
711.61	0.847
711.93	1.140
712.25	2.703
712.57	1.475
712.89	0.882
713.20	-2.959
713.52	0.867
713.84	1.114
714.16	3.421
714.48	0.773
714.80	2.338
715.11	-1.575
715.43	1.857
715.75	0.263
716.07	-0.552
716.39	1.913
716.70	-0.602
717.02	-0.328
717.34	-3.833
717.66	1.007
717.97	-5.822
718.29	-3.436
718.61	0.658
718.93	-3.560
719.24	-0.311
719.56	-2.147
719.88	-0.901
720.20	0.323
720.51	-3.416
720.83	-2.187
721.15	-0.987
721.46	-3.082
721.78	-3.667
722.10	-2.265
722.42	-3.356
722.73	-1.613
723.05	1.754
723.37	0.347
723.68	-0.717
724.00	-2.527
724.32	-3.873
724.63	1.049
724.95	0.709
725.27	-1.045
725.58	-1.767
725.90	1.379
726.22	-1.254
726.53	-0.974
726.85	0.314
727.16	0.906
727.48	2.141
727.80	-0.331
728.11	-3.887
728.43	-1.010
728.74	0.669
729.06	-2.980
729.38	-0.325
729.69	1.342
730.01	2.381
730.32	-2.121
730.64	-0.943
730.96	-0.311
731.27	3.073
731.59	-0.824
731.90	-1.558
732.22	-0.260
732.53	-1.381
732.85	-0.571
733.16	-3.519
733.48	-1.829
733.80	-1.950
734.11	0.570
734.43	1.081
734.74	2.785
735.06	-0.503
735.37	-0.270
735.69	0.811
736.00	0.282
736.32	1.617
736.63	1.944
736.95	-0.287
737.26	-4.545
737.58	-3.333
737.89	0.294
738.21	-3.976
738.52	-1.967
738.83	-0.683
739.15	1.418
739.46	-2.381
739.78	0.613
740.09	-2.579
740.41	1.166
740.72	-3.000
741.04	0.647
741.35	0.702
741.66	1.176
741.98	2.459
742.29	-1.255
742.61	0.000
742.92	-2.308
743.23	2.166
743.55	0.775
743.86	-0.800
744.18	-5.372
744.49	-2.110
744.80	-1.235
745.12	-2.954
745.43	-2.846
745.74	-0.431
746.06	-6.356
746.37	-3.797
746.68	1.626
747.00	-1.667
747.31	0.000
747.62	-0.385
747.94	-0.405
748.25	-2.410
748.56	-2.857
748.88	-2.137
749.19	0.862
749.50	-6.926
749.82	1.205
750.13	3.915
750.44	-5.000
750.75	-0.308
751.07	0.615
751.38	-1.893
751.69	-2.875
752.01	-3.883
752.32	0.000
752.63	-0.340
752.94	-0.346
753.26	-5.948
753.57	-2.222
753.88	-2.996
754.19	0.322
754.51	-1.929
754.82	2.894
755.13	2.623
755.44	0.683
755.75	-0.658
756.07	-1.493
756.38	0.314
756.69	1.205
757.00	-0.831
757.31	-3.005
757.63	-3.069
757.94	0.235
758.25	3.386
758.56	0.871
758.87	2.273
759.18	1.600
759.50	2.550
759.81	1.120
760.12	1.348
760.43	0.260
760.74	1.232
761.05	-1.000
761.36	-1.687
761.67	0.254
761.99	0.811
762.30	-0.610
762.61	-1.650
762.92	-0.746
763.23	0.000
763.54	1.079
763.85	-1.718
764.16	-0.337
764.47	-4.225
764.78	1.917
765.10	-2.639
765.41	2.564
765.72	-2.381
766.03	-2.260
766.34	-1.881
766.65	-6.620
766.96	-3.586
767.27	-2.765
767.58	-5.473
767.89	0.481
768.20	0.939
768.51	-0.463
768.82	0.000
769.13	-2.273
769.44	-5.000
769.75	-1.083
770.06	2.692
770.37	4.331
770.68	-10.213
770.99	-4.453
771.30	4.815
771.61	-1.901
771.92	-1.852
772.23	-0.405
772.54	-1.389
772.85	1.382
773.16	0.952
773.47	0.529
773.78	-9.730
774.09	-5.682
774.39	6.000
774.70	-2.186
775.01	-6.098
775.32	-7.647
775.63	-4.294
775.94	-8.280
776.25	-3.871
776.56	5.128
776.87	1.361
777.18	-2.069
777.48	-1.399
777.79	0.676
778.10	-16.912
778.41	-4.167
778.72	2.759
779.03	-3.086
779.34	-4.242
779.65	-3.109
779.95	1.111
780.26	-0.568
780.57	0.000
780.88	-6.522
781.19	5.806
781.50	4.118
781.80	5.376
782.11	-1.587
782.42	-5.051
782.73	-7.186
783.04	1.117
783.34	-5.455
783.65	-6.536
783.96	-5.590
784.27	-5.952
784.57	-2.649
784.88	0.000
785.19	-5.512
785.50	-12.598
785.81	-7.519
786.11	0.000
786.42	-9.353
786.73	-2.878
787.04	10.526
787.34	-4.918
787.65	-3.200
787.96	-2.239
788.26	2.797
788.57	-4.895
788.88	-9.211
789.19	0.000
789.49	-8.219
789.80	-4.965
790.11	-3.937
790.41	3.125
790.72	-3.390
791.03	-8.738
791.33	0.870
791.64	0.000
791.95	-7.143
792.25	-10.476
792.56	-8.929
792.87	-8.333
793.17	-5.357
793.48	-7.292
793.79	-16.867
794.09	-5.505
794.40	-11.009
794.70	1.361
795.01	-1.299
795.32	-8.219
795.62	-4.930
795.93	-9.848
796.23	-4.098
796.54	-0.893
796.85	-6.383
797.15	-4.348
797.46	-2.740
797.76	-16.250
798.07	-17.391
798.37	-18.557
798.68	-15.584
798.99	-4.598
799.29	-12.360
799.60	-9.574
799.90	-9.639
800.21	-27.692
800.51	-22.388
800.82	-27.941
801.12	-27.397
801.43	-20.588
801.73	-27.119
802.04	-9.091
802.34	-13.333
802.65	-3.390
802.95	-4.478
803.26	-5.085
803.56	-15.068
803.87	-4.286
804.17	-1.370
804.48	-26.316
804.78	-16.667
805.09	-25.862
805.39	-4.054
805.70	0.000
806.00	1.220
806.30	-6.024
806.61	-23.288
806.91	-0.962
807.22	-4.444
807.52	-12.644
807.83	-1.389
808.13	-2.410
808.43	4.494
808.74	-7.500
809.04	-30.882
809.35	-8.000
809.65	-18.571
809.95	-12.329
810.26	-22.807
810.56	-8.621
810.86	1.471
811.17	-14.035
811.47	-18.033
811.77	-31.111
812.08	-13.559
812.38	-13.333
812.69	-5.172
812.99	-13.208
813.29	-41.026
813.59	-16.000
813.90	-12.281
814.20	-10.909
814.50	0.000
814.81	-2.564
815.11	-11.475
815.41	4.478
815.72	1.724
816.02	1.786
816.32	6.667
816.62	-22.727
816.93	-22.222
817.23	-5.556
817.53	-21.277
817.84	-21.429
818.14	-17.647
818.44	-16.327
818.74	-13.333
819.04	-53.846
819.35	-51.429
819.65	-73.077
819.95	-13.208
820.25	0.000
820.56	-16.667
820.86	-43.750
821.16	-28.205
821.46	-13.953
821.76	-14.000
822.07	-12.500
822.37	-8.696
822.67	-17.021
822.97	-27.027
823.27	-27.500
823.57	0.000
823.88	-13.333
824.18	-22.500
824.48	-40.000
824.78	-56.000
825.08	-45.455
825.38	-11.111
825.69	2.128
825.99	-19.444
826.29	-74.286
826.59	-20.513
826.89	-30.233
827.19	-4.000
827.49	-11.765
827.79	-8.333
828.09	-24.324
828.39	-53.333
828.70	-21.951
829.00	-13.953
829.30	-53.571
829.60	2.941
829.90	-15.217
830.20	-62.857
830.50	-58.621
830.80	-72.222
831.10	-15.385
831.40	2.941
831.70	-28.571
832.00	-12.903
832.30	-100.000
832.60	-58.333
832.90	-107.692
833.20	-57.895
833.50	-20.000
833.80	-78.947
834.10	-138.095
834.40	-8.333
834.70	-31.250
835.00	-45.714
835.30	-26.471
835.60	-36.667
835.90	-36.000
836.20	-122.727
836.50	-60.000
836.80	-63.636
837.10	-44.444
837.40	-48.148
837.70	-137.500
838.00	-3.571
838.30	-78.261
838.60	-13.793
838.90	-128.571
839.19	-113.043
839.49	-133.333
839.79	-69.565
840.09	-150.000
840.39	-85.000
840.69	-12.903
840.99	-39.286
841.29	-60.000
841.59	-73.684
841.88	-2.564
842.18	-19.231
842.48	-60.000
842.78	-55.000
843.08	-23.333
843.38	9.677
843.68	-100.000
843.97	-2.941
844.27	-87.500
844.57	-36.842
844.87	-80.000
845.17	-80.000
845.47	0.000
845.76	-57.143
846.06	-100.000
846.36	-111.765
846.66	-23.077
846.96	-66.667
847.25	-47.059
847.55	-39.130
847.85	-60.000
848.15	-76.471
848.44	-81.818
848.74	-47.619
849.04	-50.000
849.34	-50.000
849.63	8.696
849.93	950.000
850.23	-46.667
850.53	0.000
850.82	-109.091
851.12	0.000
851.42	-54.545
851.71	-38.462
852.01	-70.000
852.31	-76.923
852.61	-52.632
852.90	-66.667
853.20	-44.444
853.50	-244.444
853.79	-66.667
854.09	-45.455
854.39	-166.667
854.68	-3.226
854.98	-30.769
855.28	-50.000
855.57	-53.571
855.87	-44.000
856.17	-50.000
856.46	-7.407
856.76	-33.333
857.05	-43.478
857.35	-25.000
857.65	-38.462
857.94	-4.762
858.24	-33.333
858.53	-26.087
858.83	-47.059
859.13	-58.824
859.42	-29.412
859.72	0.000
860.01	-40.000
860.31	-133.333
860.60	-60.000
860.90	-80.000
861.20	-5.556
861.49	-61.538
861.79	-36.667
862.08	-130.769
862.38	-12.500
862.67	-23.529
862.97	-6.250
863.26	-122.222
863.56	-40.000
863.85	-118.182
864.15	-50.000
864.44	-300.000
864.74	-71.429
865.03	-12.500
865.33	-160.000
865.62	-16.129
865.92	-18.182
866.21	-39.130
866.51	-57.143
866.80	-220.000
867.10	-175.000
867.39	-108.333
867.69	1800.000
867.98	-142.857
868.27	35.294
868.57	-2400.000
868.86	-240.000
869.16	-47.619
869.45	-4.167
869.75	-72.727
870.04	-128.571
870.33	-8.333
870.63	-300.000
870.92	-275.000
871.22	-225.000
871.51	-109.091
871.80	-533.333
872.10	-650.000
>>>>>End Processed Spectral Data<<<<<
