SpectraSuite Data File
++++++++++++++++++++++++++++++++++++
Date: Thu May 14 16:23:50 PDT 2015
User: schluterlab
Dark Spectrum Present: Yes
Reference Spectrum Present: Yes
Number of Sampled Component Spectra: 1
Spectrometers: USB2E3373
Integration Time (usec): 3000 (USB2E3373)
Spectra Averaged: 3 (USB2E3373)
Boxcar Smoothing: 0 (USB2E3373)
Correct for Electrical Dark: No (USB2E3373)
Strobe/Lamp Enabled: No (USB2E3373)
Correct for Detector Non-linearity: No (USB2E3373)
Correct for Stray Light: No (USB2E3373)
Number of Pixels in Processed Spectrum: 2048
>>>>>Begin Processed Spectral Data<<<<<
178.53	0.000
178.91	-42.857
179.29	-1100.000
179.67	-500.000
180.04	150.000
180.42	150.000
180.80	220.000
181.18	400.000
181.56	200.000
181.94	200.000
182.31	100.000
182.69	100.000
183.07	-400.000
183.45	250.000
183.83	-83.333
184.20	300.000
184.58	-400.000
184.96	-300.000
185.34	44.444
185.72	-120.000
186.09	166.667
186.47	400.000
186.85	120.000
187.23	-155.556
187.61	-1300.000
187.98	140.000
188.36	250.000
188.74	-100.000
189.12	-33.333
189.49	-31.250
189.87	-37.500
190.25	-88.889
190.63	-60.000
191.00	-133.333
191.38	0.000
191.76	-400.000
192.14	0.000
192.51	250.000
192.89	83.333
193.27	0.000
193.65	85.714
194.02	-500.000
194.40	42.857
194.78	-0.000
195.15	0.000
195.53	27.273
195.91	0.000
196.29	-50.000
196.66	-69.231
197.04	-1000.000
197.42	-71.429
197.79	-500.000
198.17	-50.000
198.55	-228.571
198.92	-77.778
199.30	0.000
199.68	18.182
200.05	14.286
200.43	150.000
200.81	228.571
201.18	0.000
201.56	44.444
201.94	0.000
202.31	233.333
202.69	-188.889
203.07	900.000
203.44	-55.556
203.82	-25.000
204.19	33.333
204.57	-183.333
204.95	-50.000
205.32	-2000.000
205.70	200.000
206.08	-150.000
206.45	133.333
206.83	320.000
207.20	-16.667
207.58	-120.000
207.96	-183.333
208.33	0.000
208.71	108.333
209.08	133.333
209.46	0.000
209.84	133.333
210.21	150.000
210.59	450.000
210.96	400.000
211.34	-50.000
211.71	-62.500
212.09	-400.000
212.46	0.000
212.84	650.000
213.22	-280.000
213.59	-250.000
213.97	0.000
214.34	-233.333
214.72	250.000
215.09	-325.000
215.47	0.000
215.84	42.857
216.22	450.000
216.59	-80.000
216.97	-80.000
217.34	25.000
217.72	-62.500
218.09	-150.000
218.47	-200.000
218.84	0.000
219.22	-0.000
219.59	29.412
219.97	-30.000
220.34	200.000
220.72	-122.222
221.09	15.385
221.47	-33.333
221.84	0.000
222.22	-200.000
222.59	0.000
222.97	-50.000
223.34	-200.000
223.72	-1100.000
224.09	-250.000
224.46	-200.000
224.84	-180.000
225.21	-71.429
225.59	-200.000
225.96	-325.000
226.34	7.692
226.71	150.000
227.08	-250.000
227.46	20.000
227.83	-275.000
228.21	15.789
228.58	50.000
228.95	400.000
229.33	-58.333
229.70	-30.000
230.08	63.158
230.45	60.000
230.82	-33.333
231.20	-71.429
231.57	41.667
231.95	27.273
232.32	-54.545
232.69	0.000
233.07	-225.000
233.44	23.529
233.81	-40.000
234.19	44.444
234.56	22.727
234.93	41.379
235.31	21.053
235.68	-33.333
236.05	-25.000
236.43	38.462
236.80	32.000
237.17	0.000
237.55	-6.061
237.92	-160.000
238.29	-6.452
238.67	-18.182
239.04	-22.222
239.41	7.143
239.79	-13.043
240.16	-1.852
240.53	2.174
240.91	-21.569
241.28	-26.230
241.65	14.925
242.02	8.108
242.40	-23.077
242.77	-1.333
243.14	-3.659
243.51	-17.105
243.89	-12.821
244.26	5.941
244.63	-1.961
245.00	-3.738
245.38	-6.140
245.75	-9.735
246.12	4.762
246.49	-5.426
246.87	5.714
247.24	0.000
247.61	1.974
247.98	-8.725
248.36	-6.173
248.73	-8.589
249.10	-3.825
249.47	9.950
249.84	3.141
250.22	-2.073
250.59	-2.222
250.96	2.273
251.33	-7.143
251.70	2.991
252.08	0.417
252.45	2.869
252.82	-0.826
253.19	0.391
253.56	0.380
253.94	0.000
254.31	0.379
254.68	4.196
255.05	1.303
255.42	-2.381
255.79	-1.618
256.16	0.000
256.54	0.000
256.91	-0.656
257.28	-1.311
257.65	-5.096
258.02	-1.475
258.39	0.570
258.76	2.446
259.14	-1.437
259.51	-2.017
259.88	-1.416
260.25	1.389
260.62	2.740
260.99	2.186
261.36	1.877
261.73	1.857
262.10	-2.473
262.47	-0.804
262.85	4.545
263.22	-2.338
263.59	-3.158
263.96	0.256
264.33	0.000
264.70	2.469
265.07	1.909
265.44	2.041
265.81	-0.463
266.18	-1.134
266.55	-0.223
266.92	-2.050
267.29	0.438
267.66	0.665
268.03	1.310
268.40	0.418
268.77	0.228
269.14	-3.084
269.51	1.096
269.88	-0.205
270.25	2.616
270.62	2.532
270.99	1.414
271.36	2.772
271.73	0.982
272.10	1.002
272.47	1.002
272.84	2.209
273.21	2.004
273.58	1.008
273.95	-0.192
274.32	-2.662
274.69	-1.161
275.06	1.465
275.43	-1.109
275.80	0.529
276.17	-0.926
276.54	0.000
276.91	0.358
277.28	-0.904
277.65	1.077
278.02	-0.735
278.39	-0.181
278.76	0.351
279.13	-0.887
279.50	0.687
279.87	0.358
280.23	-1.232
280.60	-0.508
280.97	0.822
281.34	-1.019
281.71	1.523
282.08	0.166
282.45	-0.818
282.82	0.628
283.19	-1.777
283.56	-1.475
283.92	1.952
284.29	1.106
284.66	0.657
285.03	-1.122
285.40	0.000
285.77	0.000
286.14	1.679
286.51	1.218
286.87	0.790
287.24	0.602
287.61	0.747
287.98	-0.755
288.35	0.000
288.72	0.296
289.08	1.025
289.45	-0.444
289.82	-0.452
290.19	0.718
290.56	-0.282
290.93	0.428
291.29	1.102
291.66	-0.413
292.03	-1.221
292.40	0.544
292.77	-1.752
293.13	0.677
293.50	0.131
293.87	1.208
294.24	1.067
294.60	2.655
294.97	-2.013
295.34	1.793
295.71	1.513
296.08	0.775
296.44	0.000
296.81	-0.122
297.18	-0.747
297.55	-0.236
297.91	-0.119
298.28	-0.711
298.65	1.546
299.02	0.354
299.38	2.174
299.75	0.350
300.12	-1.505
300.48	1.382
300.85	1.237
301.22	0.559
301.59	-0.114
301.95	0.565
302.32	1.222
302.69	0.329
303.05	0.871
303.42	0.887
303.79	0.521
304.15	0.736
304.52	-0.106
304.89	0.209
305.25	0.725
305.62	-0.313
305.99	1.649
306.35	-0.202
306.72	0.414
307.09	0.203
307.45	0.104
307.82	0.000
308.19	0.505
308.55	1.350
308.92	0.876
309.29	1.533
309.65	-0.097
310.02	0.990
310.38	0.984
310.75	1.165
311.12	1.630
311.48	0.196
311.85	0.855
312.22	1.139
312.58	1.408
312.95	0.956
313.31	2.529
313.68	1.557
314.05	1.807
314.41	2.186
314.78	1.817
315.14	1.906
315.51	1.939
315.87	1.350
316.24	2.009
316.61	2.664
316.97	1.538
317.34	0.882
317.70	1.747
318.07	2.116
318.43	3.912
318.80	2.759
319.16	1.974
319.53	0.771
319.89	1.928
320.26	3.381
320.62	2.482
320.99	2.493
321.35	1.571
321.72	4.651
322.08	1.984
322.45	2.529
322.81	3.700
323.18	2.566
323.54	3.276
323.91	4.359
324.27	3.787
324.64	4.366
325.00	3.731
325.37	3.849
325.73	4.545
326.10	4.542
326.46	5.456
326.83	4.484
327.19	5.118
327.56	4.822
327.92	4.485
328.29	3.226
328.65	3.853
329.01	4.653
329.38	4.718
329.74	4.623
330.11	4.623
330.47	3.875
330.84	5.082
331.20	4.833
331.56	4.853
331.93	5.690
332.29	5.424
332.66	5.897
333.02	5.611
333.38	4.446
333.75	4.461
334.11	4.337
334.48	5.116
334.84	5.607
335.20	4.618
335.57	5.649
335.93	6.198
336.29	4.493
336.66	4.542
337.02	5.435
337.38	6.888
337.75	4.545
338.11	6.140
338.47	5.707
338.84	5.076
339.20	5.055
339.56	5.519
339.93	5.255
340.29	6.039
340.65	6.164
341.02	6.624
341.38	6.467
341.74	4.358
342.11	6.597
342.47	5.639
342.83	6.119
343.20	5.969
343.56	5.533
343.92	5.604
344.28	5.703
344.65	6.202
345.01	6.396
345.37	6.299
345.73	5.066
346.10	5.928
346.46	5.538
346.82	6.592
347.19	6.264
347.55	6.829
347.91	4.903
348.27	5.159
348.63	6.474
349.00	5.966
349.36	5.948
349.72	6.920
350.08	7.132
350.45	5.247
350.81	5.958
351.17	6.015
351.53	5.534
351.89	5.847
352.26	5.299
352.62	5.448
352.98	5.038
353.34	6.273
353.70	5.855
354.07	6.036
354.43	4.784
354.79	5.909
355.15	6.623
355.51	7.091
355.87	5.385
356.24	7.376
356.60	5.987
356.96	5.634
357.32	6.691
357.68	5.564
358.04	5.090
358.40	5.746
358.77	6.798
359.13	6.056
359.49	4.387
359.85	6.309
360.21	6.958
360.57	5.743
360.93	5.994
361.29	6.246
361.66	6.372
362.02	7.307
362.38	7.027
362.74	6.075
363.10	6.121
363.46	5.471
363.82	5.966
364.18	6.263
364.54	6.777
364.90	7.425
365.26	4.966
365.62	7.067
365.98	5.786
366.35	5.973
366.71	6.395
367.07	6.360
367.43	6.566
367.79	6.304
368.15	6.957
368.51	6.428
368.87	6.336
369.23	6.467
369.59	6.216
369.95	6.897
370.31	7.968
370.67	5.983
371.03	6.648
371.39	6.447
371.75	6.878
372.11	6.843
372.47	6.635
372.83	7.068
373.19	6.805
373.55	6.233
373.91	5.862
374.27	7.180
374.63	6.834
374.99	6.432
375.35	7.792
375.71	6.839
376.07	6.908
376.42	6.486
376.78	7.209
377.14	6.613
377.50	7.211
377.86	7.697
378.22	7.006
378.58	7.134
378.94	6.866
379.30	7.381
379.66	6.643
380.02	6.751
380.38	7.143
380.74	7.549
381.09	6.620
381.45	7.386
381.81	6.850
382.17	6.888
382.53	7.076
382.89	7.562
383.25	7.268
383.61	6.713
383.97	6.419
384.32	6.878
384.68	6.439
385.04	7.981
385.40	8.014
385.76	7.913
386.12	6.882
386.48	7.235
386.83	7.449
387.19	6.663
387.55	7.512
387.91	7.192
388.27	7.448
388.62	7.102
388.98	7.163
389.34	7.720
389.70	7.670
390.06	7.046
390.42	7.169
390.77	8.067
391.13	7.512
391.49	7.065
391.85	7.333
392.20	7.355
392.56	8.506
392.92	7.852
393.28	8.015
393.64	6.872
393.99	7.147
394.35	7.886
394.71	7.844
395.07	6.766
395.42	6.739
395.78	7.983
396.14	7.368
396.50	7.660
396.85	7.215
397.21	7.160
397.57	7.244
397.92	8.076
398.28	6.410
398.64	6.865
399.00	6.545
399.35	6.649
399.71	6.957
400.07	7.243
400.42	7.334
400.78	7.292
401.14	6.944
401.49	7.049
401.85	7.267
402.21	7.822
402.57	7.042
402.92	6.738
403.28	6.674
403.63	6.981
403.99	6.295
404.35	7.106
404.70	7.025
405.06	7.500
405.42	7.143
405.77	7.361
406.13	7.293
406.49	6.644
406.84	7.368
407.20	7.267
407.55	6.299
407.91	6.474
408.27	6.773
408.62	6.981
408.98	6.849
409.34	6.393
409.69	7.293
410.05	8.148
410.40	8.237
410.76	6.898
411.11	6.897
411.47	6.388
411.83	7.760
412.18	7.048
412.54	7.172
412.89	7.392
413.25	6.433
413.60	6.893
413.96	7.401
414.31	6.119
414.67	7.931
415.03	6.277
415.38	6.305
415.74	6.964
416.09	7.279
416.45	6.825
416.80	7.222
417.16	6.577
417.51	6.600
417.87	6.376
418.22	7.186
418.58	7.125
418.93	7.974
419.29	6.042
419.64	7.323
420.00	6.350
420.35	7.243
420.71	7.122
421.06	6.555
421.42	7.053
421.77	6.031
422.12	6.290
422.48	7.629
422.83	7.174
423.19	7.268
423.54	7.080
423.90	7.178
424.25	6.560
424.61	6.257
424.96	7.084
425.31	6.900
425.67	5.958
426.02	7.084
426.38	6.946
426.73	6.641
427.09	7.439
427.44	6.554
427.79	6.689
428.15	5.822
428.50	6.404
428.85	6.889
429.21	6.915
429.56	6.367
429.92	7.027
430.27	6.506
430.62	6.742
430.98	6.493
431.33	6.061
431.68	5.843
432.04	6.348
432.39	6.427
432.74	6.393
433.10	6.760
433.45	6.076
433.80	6.706
434.16	6.818
434.51	6.269
434.86	5.755
435.22	6.111
435.57	6.545
435.92	6.344
436.28	6.030
436.63	6.117
436.98	6.763
437.34	6.313
437.69	6.274
438.04	6.293
438.39	6.203
438.75	5.811
439.10	6.924
439.45	5.757
439.81	5.989
440.16	6.005
440.51	6.132
440.86	6.670
441.22	6.270
441.57	6.866
441.92	5.771
442.27	7.121
442.63	6.756
442.98	6.510
443.33	6.839
443.68	6.789
444.03	6.397
444.39	6.611
444.74	6.687
445.09	6.538
445.44	6.533
445.79	6.034
446.15	7.297
446.50	6.512
446.85	6.420
447.20	7.157
447.55	6.172
447.91	5.864
448.26	6.501
448.61	6.801
448.96	6.330
449.31	6.946
449.66	5.991
450.02	6.065
450.37	6.713
450.72	6.297
451.07	6.435
451.42	5.835
451.77	6.504
452.12	5.926
452.47	6.358
452.83	5.743
453.18	5.954
453.53	6.663
453.88	6.074
454.23	6.441
454.58	5.398
454.93	5.704
455.28	6.261
455.63	6.595
455.98	6.648
456.34	6.419
456.69	6.643
457.04	6.206
457.39	6.486
457.74	6.320
458.09	6.315
458.44	6.304
458.79	6.086
459.14	6.030
459.49	5.999
459.84	6.034
460.19	6.219
460.54	6.303
460.89	5.982
461.24	5.862
461.59	6.143
461.94	5.077
462.29	6.663
462.64	5.975
462.99	6.340
463.34	5.970
463.69	5.451
464.04	6.448
464.39	6.614
464.74	6.328
465.09	5.709
465.44	5.258
465.79	7.033
466.14	5.472
466.49	6.368
466.84	5.620
467.19	6.243
467.54	5.288
467.89	6.207
468.24	5.928
468.59	5.385
468.94	5.711
469.29	5.519
469.64	5.976
469.99	4.908
470.34	5.569
470.68	5.742
471.03	5.959
471.38	5.494
471.73	5.072
472.08	5.964
472.43	6.141
472.78	5.668
473.13	5.499
473.48	5.559
473.83	6.210
474.17	5.569
474.52	5.352
474.87	6.146
475.22	5.746
475.57	6.075
475.92	6.122
476.27	5.644
476.61	5.659
476.96	4.797
477.31	5.842
477.66	5.719
478.01	5.846
478.36	5.434
478.70	5.172
479.05	5.879
479.40	5.331
479.75	5.764
480.10	5.353
480.45	6.062
480.79	5.669
481.14	5.285
481.49	4.998
481.84	5.527
482.19	5.634
482.53	5.641
482.88	5.804
483.23	5.469
483.58	5.109
483.92	5.009
484.27	5.631
484.62	5.239
484.97	5.988
485.31	5.385
485.66	5.239
486.01	5.023
486.36	5.082
486.70	5.556
487.05	5.586
487.40	5.294
487.75	5.522
488.09	5.015
488.44	5.487
488.79	5.700
489.13	5.395
489.48	4.893
489.83	4.909
490.17	5.063
490.52	5.542
490.87	4.780
491.22	4.549
491.56	5.375
491.91	5.451
492.26	5.322
492.60	5.028
492.95	5.046
493.30	4.975
493.64	5.212
493.99	4.649
494.34	4.617
494.68	4.711
495.03	5.066
495.37	5.149
495.72	4.535
496.07	4.557
496.41	4.547
496.76	5.129
497.11	4.289
497.45	4.489
497.80	4.887
498.14	4.308
498.49	4.550
498.84	4.707
499.18	4.543
499.53	5.157
499.87	5.099
500.22	3.874
500.56	4.588
500.91	4.760
501.26	4.818
501.60	4.065
501.95	4.776
502.29	4.344
502.64	4.591
502.98	4.573
503.33	4.622
503.67	4.317
504.02	4.159
504.36	4.960
504.71	4.088
505.06	5.139
505.40	4.616
505.75	4.463
506.09	4.466
506.44	4.735
506.78	4.954
507.13	4.103
507.47	5.069
507.82	4.356
508.16	4.685
508.51	3.704
508.85	4.535
509.19	4.500
509.54	4.611
509.88	4.371
510.23	4.371
510.57	4.688
510.92	4.790
511.26	4.618
511.61	3.815
511.95	4.002
512.30	5.121
512.64	4.598
512.98	4.552
513.33	5.292
513.67	4.793
514.02	4.854
514.36	4.501
514.70	4.375
515.05	4.745
515.39	4.462
515.74	5.143
516.08	4.332
516.42	4.919
516.77	4.469
517.11	4.177
517.46	4.295
517.80	4.543
518.14	4.625
518.49	4.447
518.83	4.311
519.17	4.254
519.52	4.140
519.86	4.277
520.20	5.059
520.55	4.436
520.89	3.829
521.23	4.188
521.58	3.955
521.92	4.986
522.26	4.467
522.61	3.993
522.95	4.671
523.29	4.080
523.64	4.709
523.98	4.564
524.32	4.527
524.66	4.610
525.01	4.473
525.35	4.193
525.69	4.002
526.04	4.478
526.38	3.908
526.72	4.325
527.06	4.340
527.41	4.140
527.75	4.572
528.09	4.191
528.43	3.789
528.78	4.104
529.12	3.612
529.46	4.384
529.80	4.062
530.15	4.290
530.49	3.796
530.83	4.191
531.17	4.122
531.51	4.513
531.86	4.447
532.20	4.817
532.54	4.189
532.88	3.939
533.22	4.420
533.57	4.328
533.91	5.051
534.25	4.805
534.59	4.310
534.93	4.358
535.27	3.944
535.62	4.662
535.96	3.951
536.30	4.465
536.64	4.625
536.98	4.490
537.32	3.704
537.66	4.242
538.01	3.927
538.35	3.776
538.69	4.748
539.03	4.414
539.37	4.711
539.71	4.084
540.05	4.077
540.39	3.362
540.73	4.432
541.07	3.495
541.42	4.489
541.76	3.499
542.10	4.041
542.44	3.228
542.78	4.380
543.12	3.933
543.46	3.846
543.80	3.777
544.14	4.548
544.48	4.314
544.82	4.249
545.16	4.472
545.50	4.254
545.84	3.674
546.18	5.000
546.52	3.694
546.86	4.403
547.20	3.880
547.54	3.683
547.88	3.617
548.22	3.333
548.56	3.335
548.90	3.522
549.24	3.708
549.58	3.912
549.92	3.253
550.26	3.754
550.60	4.659
550.94	4.204
551.28	4.092
551.62	3.706
551.96	3.366
552.30	4.716
552.64	4.418
552.98	3.868
553.32	3.666
553.66	3.280
554.00	4.288
554.34	3.861
554.68	4.196
555.02	3.942
555.36	4.011
555.69	3.652
556.03	3.279
556.37	4.443
556.71	3.551
557.05	3.962
557.39	3.451
557.73	3.765
558.07	3.709
558.41	3.920
558.75	3.178
559.08	3.410
559.42	3.292
559.76	3.528
560.10	4.287
560.44	3.430
560.78	4.063
561.12	3.202
561.45	3.528
561.79	3.846
562.13	3.758
562.47	3.453
562.81	3.354
563.15	3.157
563.48	3.605
563.82	4.414
564.16	3.150
564.50	3.576
564.84	3.717
565.17	3.824
565.51	3.567
565.85	3.444
566.19	2.995
566.52	3.043
566.86	3.565
567.20	3.263
567.54	2.974
567.88	3.211
568.21	3.360
568.55	3.357
568.89	3.132
569.23	3.718
569.56	3.322
569.90	3.849
570.24	3.339
570.57	3.303
570.91	3.307
571.25	3.413
571.59	3.702
571.92	3.358
572.26	3.653
572.60	3.385
572.93	4.063
573.27	3.344
573.61	3.520
573.95	3.617
574.28	3.527
574.62	3.456
574.96	3.441
575.29	3.569
575.63	3.650
575.97	3.784
576.30	3.479
576.64	3.603
576.98	3.485
577.31	3.855
577.65	3.240
577.98	3.257
578.32	3.512
578.66	3.619
578.99	3.215
579.33	3.224
579.67	3.309
580.00	3.551
580.34	3.687
580.67	3.575
581.01	3.527
581.35	3.526
581.68	3.336
582.02	3.664
582.35	3.436
582.69	3.370
583.02	3.439
583.36	3.533
583.70	3.408
584.03	3.168
584.37	3.530
584.70	3.227
585.04	3.348
585.37	3.447
585.71	3.172
586.04	3.413
586.38	3.598
586.72	3.033
587.05	3.095
587.39	3.291
587.72	3.612
588.06	3.264
588.39	3.485
588.73	3.519
589.06	3.245
589.40	3.104
589.73	3.728
590.07	3.382
590.40	3.584
590.73	3.499
591.07	3.313
591.40	3.072
591.74	3.219
592.07	3.735
592.41	2.879
592.74	3.266
593.08	3.694
593.41	3.529
593.75	3.506
594.08	2.999
594.41	3.526
594.75	3.388
595.08	3.096
595.42	3.279
595.75	3.584
596.09	3.253
596.42	3.475
596.75	3.281
597.09	3.071
597.42	3.298
597.75	3.097
598.09	3.413
598.42	3.257
598.76	3.477
599.09	3.240
599.42	3.185
599.76	3.301
600.09	3.237
600.42	3.403
600.76	3.303
601.09	2.921
601.42	3.364
601.76	3.276
602.09	3.145
602.42	3.381
602.76	3.358
603.09	3.524
603.42	3.288
603.76	2.784
604.09	3.797
604.42	3.339
604.76	3.120
605.09	3.510
605.42	2.911
605.75	3.385
606.09	2.837
606.42	3.247
606.75	3.111
607.09	3.264
607.42	3.160
607.75	3.283
608.08	3.236
608.42	3.225
608.75	3.275
609.08	2.971
609.41	3.132
609.75	3.170
610.08	3.342
610.41	3.398
610.74	3.361
611.07	3.064
611.41	3.498
611.74	3.326
612.07	3.647
612.40	2.852
612.73	2.738
613.07	3.227
613.40	3.609
613.73	3.033
614.06	2.797
614.39	3.013
614.72	3.396
615.06	3.224
615.39	3.238
615.72	3.365
616.05	3.060
616.38	3.481
616.71	3.814
617.05	3.142
617.38	3.210
617.71	3.672
618.04	3.616
618.37	2.951
618.70	3.507
619.03	2.808
619.36	2.898
619.69	3.075
620.03	3.139
620.36	2.577
620.69	3.948
621.02	3.084
621.35	2.975
621.68	4.266
622.01	3.843
622.34	2.789
622.67	2.818
623.00	2.294
623.33	4.114
623.66	3.632
623.99	2.172
624.32	3.119
624.65	2.510
624.99	3.381
625.32	3.919
625.65	3.439
625.98	3.254
626.31	3.189
626.64	3.516
626.97	2.926
627.30	2.506
627.63	2.926
627.96	4.354
628.29	2.490
628.62	1.763
628.95	2.717
629.28	1.954
629.61	3.030
629.94	1.841
630.26	2.458
630.59	2.504
630.92	3.203
631.25	3.846
631.58	2.072
631.91	1.593
632.24	2.786
632.57	3.416
632.90	2.808
633.23	2.347
633.56	2.449
633.89	2.893
634.22	2.911
634.55	3.445
634.88	1.407
635.20	3.875
635.53	2.825
635.86	3.142
636.19	3.712
636.52	3.270
636.85	2.554
637.18	3.326
637.51	1.828
637.83	3.987
638.16	1.498
638.49	1.174
638.82	1.466
639.15	1.031
639.48	3.464
639.81	2.309
640.13	3.534
640.46	1.576
640.79	2.328
641.12	3.230
641.45	3.137
641.77	5.520
642.10	1.050
642.43	3.059
642.76	2.981
643.09	1.233
643.41	2.661
643.74	2.207
644.07	3.172
644.40	1.556
644.73	3.048
645.05	2.790
645.38	3.165
645.71	3.519
646.04	3.587
646.36	0.292
646.69	2.607
647.02	2.294
647.35	3.359
647.67	2.899
648.00	2.070
648.33	1.952
648.66	2.140
648.98	2.993
649.31	3.248
649.64	3.586
649.96	3.050
650.29	1.947
650.62	1.273
650.94	1.502
651.27	2.246
651.60	2.632
651.92	2.736
652.25	2.894
652.58	2.751
652.90	0.727
653.23	4.085
653.56	3.424
653.88	5.056
654.21	3.380
654.54	3.179
654.86	3.258
655.19	1.506
655.52	2.634
655.84	3.155
656.17	3.758
656.49	5.237
656.82	5.956
657.15	4.583
657.47	3.384
657.80	2.502
658.13	1.993
658.45	2.604
658.78	3.360
659.10	3.021
659.43	3.142
659.75	2.473
660.08	2.577
660.41	1.985
660.73	1.824
661.06	2.349
661.38	3.030
661.71	2.586
662.03	3.175
662.36	4.114
662.68	3.565
663.01	2.301
663.33	3.403
663.66	1.832
663.98	2.308
664.31	3.565
664.63	-0.385
664.96	2.904
665.28	0.363
665.61	4.371
665.93	2.321
666.26	1.792
666.58	-0.185
666.91	1.682
667.23	3.810
667.56	2.170
667.88	3.200
668.21	-0.586
668.53	0.579
668.86	3.536
669.18	0.000
669.50	2.584
669.83	1.600
670.15	1.181
670.48	3.968
670.80	-0.191
671.13	2.647
671.45	2.953
671.77	2.637
672.10	2.667
672.42	1.780
672.75	1.382
673.07	4.328
673.39	3.544
673.72	3.859
674.04	3.793
674.37	0.716
674.69	4.762
675.01	1.524
675.34	0.382
675.66	1.873
675.98	3.918
676.31	0.977
676.63	3.232
676.95	3.257
677.28	2.218
677.60	-0.394
677.92	2.495
678.25	2.377
678.57	3.381
678.89	3.584
679.22	1.220
679.54	1.538
679.86	0.508
680.18	1.327
680.51	2.516
680.83	3.764
681.15	1.207
681.48	4.318
681.80	2.763
682.12	2.622
682.44	2.838
682.77	3.723
683.09	2.462
683.41	2.132
683.73	0.949
684.06	2.399
684.38	2.504
684.70	2.334
685.02	2.754
685.34	0.666
685.67	0.789
685.99	1.380
686.31	1.890
686.63	1.896
686.96	1.262
687.28	1.466
687.60	0.505
687.92	1.608
688.24	2.170
688.56	1.724
688.89	3.630
689.21	3.327
689.53	2.157
689.85	1.183
690.17	2.778
690.49	0.598
690.82	1.386
691.14	-0.202
691.46	2.486
691.78	2.578
692.10	0.734
692.42	1.786
692.74	3.267
693.06	0.741
693.39	4.554
693.71	3.383
694.03	2.788
694.35	1.905
694.67	1.848
694.99	0.638
695.31	-0.883
695.63	2.165
695.95	0.828
696.27	2.198
696.59	2.655
696.91	3.378
697.23	6.593
697.56	-0.815
697.88	1.515
698.20	2.072
698.52	5.303
698.84	2.287
699.16	3.265
699.48	0.837
699.80	2.340
700.12	0.437
700.44	1.152
700.76	4.988
701.08	4.116
701.40	3.109
701.72	0.249
702.04	0.802
702.36	-1.832
702.68	1.467
703.00	3.912
703.32	1.232
703.64	3.423
703.96	2.864
704.28	2.703
704.60	5.316
704.91	3.061
705.23	2.192
705.55	3.064
705.87	1.818
706.19	4.294
706.51	0.000
706.83	0.288
707.15	0.529
707.47	0.467
707.79	0.000
708.11	-0.847
708.43	0.860
708.74	-1.116
709.06	-0.928
709.38	2.113
709.70	3.474
710.02	1.292
710.34	5.319
710.66	0.000
710.98	1.913
711.29	-0.824
711.61	1.412
711.93	0.285
712.25	0.541
712.57	4.425
712.89	5.000
713.20	1.183
713.52	4.046
713.84	0.836
714.16	3.684
714.48	3.608
714.80	4.935
715.11	1.050
715.43	0.265
715.75	4.737
716.07	0.552
716.39	5.191
716.70	-1.506
717.02	0.984
717.34	-4.530
717.66	0.000
717.97	1.027
718.29	0.687
718.61	3.289
718.93	0.647
719.24	-1.242
719.56	0.613
719.88	1.502
720.20	-1.290
720.51	-0.932
720.83	3.750
721.15	-1.645
721.46	-2.740
721.78	1.667
722.10	-2.913
722.42	0.000
722.73	-0.645
723.05	0.000
723.37	1.389
723.68	0.000
724.00	3.610
724.32	-3.873
724.63	0.699
724.95	5.319
725.27	0.697
725.58	0.353
725.90	1.034
726.22	0.627
726.53	2.597
726.85	2.516
727.16	1.813
727.48	4.281
727.80	2.980
728.11	0.707
728.43	2.357
728.74	0.334
729.06	0.000
729.38	1.299
729.69	-1.342
730.01	0.000
730.32	-1.515
730.64	1.572
730.96	0.311
731.27	5.307
731.59	1.923
731.90	2.597
732.22	0.781
732.53	-0.829
732.85	2.286
733.16	2.346
733.48	0.610
733.80	1.950
734.11	0.000
734.43	1.892
734.74	4.810
735.06	1.005
735.37	1.892
735.69	1.081
736.00	-0.847
736.32	2.156
736.63	3.889
736.95	0.000
737.26	2.727
737.58	-3.333
737.89	0.588
738.21	0.917
738.52	-0.656
738.83	6.143
739.15	0.355
739.46	1.020
739.78	2.761
740.09	-1.433
740.41	3.207
740.72	0.333
741.04	1.618
741.35	1.404
741.66	-0.784
741.98	3.689
742.29	-0.418
742.61	1.754
742.92	1.923
743.23	3.249
743.55	3.101
743.86	1.600
744.18	-3.719
744.49	0.000
744.80	3.704
745.12	1.266
745.43	3.659
745.74	-1.293
746.06	0.424
746.37	2.110
746.68	2.439
747.00	3.750
747.31	2.575
747.62	5.385
747.94	0.405
748.25	-0.803
748.56	-3.673
748.88	-1.282
749.19	3.879
749.50	-2.597
749.82	1.606
750.13	1.779
750.44	-1.000
750.75	-0.308
751.07	-0.615
751.38	1.893
751.69	0.639
752.01	-1.294
752.32	1.307
752.63	-2.381
752.94	2.076
753.26	-2.602
753.57	0.000
753.88	-1.124
754.19	3.215
754.51	0.965
754.82	2.894
755.13	1.639
755.44	1.706
755.75	1.316
756.07	5.672
756.38	-1.258
756.69	1.506
757.00	1.108
757.31	1.639
757.63	-1.023
757.94	0.469
758.25	4.063
758.56	2.614
758.87	4.545
759.18	0.800
759.50	2.550
759.81	1.120
760.12	1.078
760.43	3.646
760.74	0.000
761.05	2.500
761.36	0.964
761.67	2.538
761.99	1.081
762.30	0.610
762.61	2.970
762.92	0.746
763.23	4.120
763.54	2.518
763.85	2.749
764.16	-2.020
764.47	-0.352
764.78	2.556
765.10	2.053
765.41	5.385
765.72	-1.323
766.03	1.412
766.34	0.627
766.65	0.000
766.96	0.398
767.27	1.382
767.58	-3.483
767.89	2.885
768.20	1.878
768.51	-0.463
768.82	0.803
769.13	-1.515
769.44	-3.462
769.75	3.971
770.06	0.000
770.37	2.756
770.68	-2.553
770.99	-2.024
771.30	4.074
771.61	1.901
771.92	-0.741
772.23	2.024
772.54	-6.019
772.85	4.608
773.16	5.238
773.47	-2.116
773.78	-7.568
774.09	-2.273
774.39	3.500
774.70	7.104
775.01	-4.878
775.32	-2.353
775.63	1.227
775.94	-4.459
776.25	3.871
776.56	7.051
776.87	8.163
777.18	-0.690
777.48	-5.594
777.79	1.351
778.10	-13.235
778.41	4.167
778.72	-0.690
779.03	-3.086
779.34	-9.091
779.65	1.554
779.95	3.889
780.26	1.136
780.57	-0.645
780.88	3.623
781.19	3.226
781.50	8.824
781.80	2.151
782.11	-3.175
782.42	-2.020
782.73	-1.796
783.04	2.793
783.34	-5.455
783.65	-8.497
783.96	-1.242
784.27	-1.190
784.57	1.325
784.88	0.000
785.19	0.000
785.50	-4.724
785.81	2.256
786.11	7.692
786.42	-4.317
786.73	3.597
787.04	9.023
787.34	-4.918
787.65	0.800
787.96	-5.970
788.26	2.797
788.57	-0.699
788.88	3.947
789.19	1.961
789.49	4.795
789.80	8.511
790.11	7.874
790.41	3.906
790.72	0.000
791.03	-7.767
791.33	2.609
791.64	4.386
791.95	-6.250
792.25	1.905
792.56	0.000
792.87	-12.500
793.17	2.679
793.48	-4.167
793.79	-19.277
794.09	-3.670
794.40	-7.339
794.70	2.721
795.01	4.545
795.32	-2.740
795.62	3.521
795.93	-0.758
796.23	-2.459
796.54	2.679
796.85	-1.064
797.15	-10.870
797.46	-20.548
797.76	-12.500
798.07	-1.087
798.37	-5.155
798.68	-3.896
798.99	3.448
799.29	0.000
799.60	2.128
799.90	-8.434
800.21	-18.462
800.51	-10.448
800.82	-22.059
801.12	-26.027
801.43	-17.647
801.73	-15.254
802.04	3.030
802.34	-23.333
802.65	-10.169
802.95	-1.493
803.26	-8.475
803.56	2.740
803.87	8.571
804.17	4.110
804.48	-33.333
804.78	-9.722
805.09	-10.345
805.39	8.108
805.70	-28.169
806.00	0.000
806.30	6.024
806.61	0.000
806.91	-0.962
807.22	-8.889
807.52	-9.195
807.83	-8.333
808.13	-2.410
808.43	4.494
808.74	2.500
809.04	-11.765
809.35	-8.000
809.65	-8.571
809.95	-8.219
810.26	-12.281
810.56	-6.897
810.86	4.412
811.17	-19.298
811.47	-6.557
811.77	-11.111
812.08	-11.864
812.38	-3.333
812.69	-5.172
812.99	-24.528
813.29	-28.205
813.59	8.000
813.90	0.000
814.20	-12.727
814.50	1.408
814.81	2.564
815.11	-1.639
815.41	5.970
815.72	-12.069
816.02	-1.786
816.32	11.111
816.62	11.364
816.93	2.222
817.23	16.667
817.53	-6.383
817.84	2.381
818.14	-11.765
818.44	-2.041
818.74	-6.667
819.04	-64.103
819.35	-37.143
819.65	-30.769
819.95	-7.547
820.25	8.889
820.56	-16.667
820.86	-12.500
821.16	-41.026
821.46	-18.605
821.76	-38.000
822.07	-10.714
822.37	-32.609
822.67	-12.766
822.97	-43.243
823.27	-15.000
823.57	0.000
823.88	2.222
824.18	-15.000
824.48	-33.333
824.78	-56.000
825.08	-6.061
825.38	17.778
825.69	21.277
825.99	-11.111
826.29	-65.714
826.59	-7.692
826.89	-23.256
827.19	8.000
827.49	-11.765
827.79	-18.750
828.09	-5.405
828.39	-30.000
828.70	12.195
829.00	-11.628
829.30	-32.143
829.60	5.882
829.90	-4.348
830.20	-37.143
830.50	-20.690
830.80	-88.889
831.10	-50.000
831.40	-20.588
831.70	-38.095
832.00	54.839
832.30	-82.353
832.60	-25.000
832.90	-84.615
833.20	-31.579
833.50	15.000
833.80	-78.947
834.10	-80.952
834.40	-8.333
834.70	-18.750
835.00	-51.429
835.30	17.647
835.60	0.000
835.90	-20.000
836.20	-27.273
836.50	4.000
836.80	-12.121
837.10	7.407
837.40	-18.519
837.70	-118.750
838.00	-17.857
838.30	-39.130
838.60	-10.345
838.90	-92.857
839.19	-73.913
839.49	-158.333
839.79	30.435
840.09	-62.500
840.39	-60.000
840.69	0.000
840.99	-25.000
841.29	53.333
841.59	-57.895
841.88	-5.128
842.18	-46.154
842.48	-70.000
842.78	-10.000
843.08	-6.667
843.38	25.806
843.68	-50.000
843.97	0.000
844.27	-31.250
844.57	-57.895
844.87	-90.000
845.17	-66.667
845.47	-19.048
845.76	-28.571
846.06	-133.333
846.36	-64.706
846.66	-19.231
846.96	-26.667
847.25	-29.412
847.55	21.739
847.85	-25.000
848.15	-58.824
848.44	-72.727
848.74	9.524
849.04	-20.833
849.34	-68.750
849.63	17.391
849.93	1100.000
850.23	-46.667
850.53	-15.385
850.82	-118.182
851.12	13.636
851.42	-127.273
851.71	-53.846
852.01	-35.000
852.31	-84.615
852.61	-47.368
852.90	-16.667
853.20	-5.556
853.50	-155.556
853.79	-14.286
854.09	-31.818
854.39	-83.333
854.68	3.226
854.98	-46.154
855.28	-11.111
855.57	-53.571
855.87	-40.000
856.17	-36.364
856.46	-22.222
856.76	-11.111
857.05	-21.739
857.35	-37.500
857.65	7.692
857.94	-28.571
858.24	-3.704
858.53	21.739
858.83	0.000
859.13	-17.647
859.42	0.000
859.72	7.143
860.01	0.000
860.31	-211.111
860.60	-80.000
860.90	13.333
861.20	5.556
861.49	15.385
861.79	16.667
862.08	-100.000
862.38	3.125
862.67	23.529
862.97	-31.250
863.26	-122.222
863.56	20.000
863.85	-81.818
864.15	11.111
864.44	-200.000
864.74	-14.286
865.03	-75.000
865.33	-230.000
865.62	-9.677
865.92	4.545
866.21	-8.696
866.51	7.143
866.80	-140.000
867.10	-91.667
867.39	-50.000
867.69	1600.000
867.98	-85.714
868.27	-11.765
868.57	-1000.000
868.86	-150.000
869.16	-42.857
869.45	29.167
869.75	-9.091
870.04	-85.714
870.33	-8.333
870.63	-100.000
870.92	25.000
871.22	-100.000
871.51	-127.273
871.80	-366.667
872.10	-450.000
>>>>>End Processed Spectral Data<<<<<
