SpectraSuite Data File
++++++++++++++++++++++++++++++++++++
Date: Sat May 16 11:11:34 PDT 2015
User: schluterlab
Dark Spectrum Present: Yes
Reference Spectrum Present: Yes
Number of Sampled Component Spectra: 1
Spectrometers: USB2E3373
Integration Time (usec): 3000 (USB2E3373)
Spectra Averaged: 3 (USB2E3373)
Boxcar Smoothing: 0 (USB2E3373)
Correct for Electrical Dark: No (USB2E3373)
Strobe/Lamp Enabled: No (USB2E3373)
Correct for Detector Non-linearity: No (USB2E3373)
Correct for Stray Light: No (USB2E3373)
Number of Pixels in Processed Spectrum: 2048
>>>>>Begin Processed Spectral Data<<<<<
178.53	0.000
178.91	-0.000
179.29	366.667
179.67	100.000
180.04	-53.846
180.42	-100.000
180.80	175.000
181.18	175.000
181.56	50.000
181.94	700.000
182.31	250.000
182.69	30.769
183.07	-233.333
183.45	1050.000
183.83	266.667
184.20	-28.571
184.58	-112.500
184.96	-75.000
185.34	137.500
185.72	-300.000
186.09	150.000
186.47	-50.000
186.85	-50.000
187.23	-37.500
187.61	-175.000
187.98	-150.000
188.36	87.500
188.74	-75.000
189.12	200.000
189.49	257.143
189.87	-8.333
190.25	350.000
190.63	42.857
191.00	-133.333
191.38	280.000
191.76	66.667
192.14	420.000
192.51	0.000
192.89	0.000
193.27	0.000
193.65	-55.556
194.02	-85.714
194.40	400.000
194.78	-50.000
195.15	200.000
195.53	-9.091
195.91	-283.333
196.29	160.000
196.66	-433.333
197.04	900.000
197.42	100.000
197.79	73.333
198.17	-133.333
198.55	-200.000
198.92	100.000
199.30	112.500
199.68	100.000
200.05	-77.778
200.43	-133.333
200.81	0.000
201.18	-75.000
201.56	100.000
201.94	0.000
202.31	45.455
202.69	50.000
203.07	-40.000
203.44	166.667
203.82	-166.667
204.19	-225.000
204.57	-125.000
204.95	-500.000
205.32	-87.500
205.70	200.000
206.08	-1900.000
206.45	22.222
206.83	-550.000
207.20	0.000
207.58	-300.000
207.96	-466.667
208.33	-50.000
208.71	-11.111
209.08	160.000
209.46	57.143
209.84	400.000
210.21	0.000
210.59	15.000
210.96	700.000
211.34	-250.000
211.71	100.000
212.09	325.000
212.46	400.000
212.84	-1600.000
213.22	300.000
213.59	75.000
213.97	77.778
214.34	60.000
214.72	-80.000
215.09	-133.333
215.47	-50.000
215.84	40.000
216.22	-10.000
216.59	53.333
216.97	-325.000
217.34	450.000
217.72	-28.571
218.09	-166.667
218.47	-171.429
218.84	14.286
219.22	57.143
219.59	0.000
219.97	142.857
220.34	375.000
220.72	187.500
221.09	15.385
221.47	0.000
221.84	400.000
222.22	-250.000
222.59	600.000
222.97	-62.500
223.34	-750.000
223.72	-366.667
224.09	-64.286
224.46	-300.000
224.84	-7.143
225.21	-242.857
225.59	45.455
225.96	-12.500
226.34	-57.143
226.71	-77.778
227.08	40.000
227.46	1200.000
227.83	14.286
228.21	-150.000
228.58	250.000
228.95	-6.250
229.33	-1300.000
229.70	-200.000
230.08	-750.000
230.45	25.000
230.82	-83.333
231.20	-200.000
231.57	150.000
231.95	1000.000
232.32	57.143
232.69	-88.889
233.07	-128.571
233.44	-250.000
233.81	-100.000
234.19	-77.778
234.56	-12.500
234.93	37.500
235.31	14.286
235.68	-92.857
236.05	-58.824
236.43	-40.909
236.80	-3.226
237.17	-20.833
237.55	-4.762
237.92	-59.091
238.29	-20.000
238.67	14.706
239.04	-5.556
239.41	-54.839
239.79	-20.513
240.16	-57.143
240.53	-14.545
240.91	-2.564
241.28	7.273
241.65	10.769
242.02	-6.557
242.40	-8.197
242.77	3.030
243.14	-20.339
243.51	-18.571
243.89	-10.127
244.26	-5.618
244.63	-2.105
245.00	-2.105
245.38	2.542
245.75	7.080
246.12	-3.200
246.49	0.000
246.87	2.439
247.24	-19.492
247.61	-5.932
247.98	2.113
248.36	-5.594
248.73	-2.532
249.10	-10.828
249.47	-4.094
249.84	3.409
250.22	-13.095
250.59	-1.695
250.96	-1.571
251.33	5.213
251.70	-2.885
252.08	1.896
252.45	-2.844
252.82	4.286
253.19	-0.851
253.56	2.823
253.94	1.688
254.31	-2.146
254.68	-0.813
255.05	-0.403
255.42	-0.397
255.79	-2.509
256.16	2.353
256.54	0.735
256.91	1.136
257.28	-1.099
257.65	-1.773
258.02	5.031
258.39	0.000
258.76	-2.027
259.14	-0.926
259.51	-0.328
259.88	-0.305
260.25	0.311
260.62	-2.894
260.99	-2.374
261.36	2.439
261.73	1.156
262.10	1.667
262.47	1.425
262.85	4.000
263.22	1.433
263.59	-1.846
263.96	0.290
264.33	2.710
264.70	1.105
265.07	-2.198
265.44	0.000
265.81	0.000
266.18	2.025
266.55	-0.490
266.92	3.526
267.29	0.726
267.66	-1.481
268.03	2.899
268.40	0.235
268.77	2.169
269.14	2.088
269.51	3.678
269.88	0.000
270.25	0.000
270.62	2.059
270.99	0.901
271.36	1.865
271.73	-0.897
272.10	-0.229
272.47	-2.000
272.84	5.111
273.21	-0.229
273.58	0.220
273.95	1.535
274.32	-1.131
274.69	1.751
275.06	2.454
275.43	0.446
275.80	2.851
276.17	2.301
276.54	2.240
276.91	-0.206
277.28	3.448
277.65	-0.207
278.02	1.253
278.39	2.554
278.76	0.199
279.13	2.964
279.50	-1.988
279.87	2.114
280.23	1.822
280.60	-2.386
280.97	-0.194
281.34	2.901
281.71	0.769
282.08	0.605
282.45	-2.851
282.82	1.550
283.19	2.000
283.56	3.480
283.92	1.060
284.29	1.115
284.66	2.698
285.03	3.743
285.40	2.583
285.77	1.754
286.14	2.708
286.51	0.000
286.87	2.178
287.24	2.389
287.61	0.496
287.98	-1.560
288.35	0.496
288.72	0.340
289.08	0.847
289.45	2.189
289.82	-0.519
290.19	1.149
290.56	-0.165
290.93	-0.477
291.29	-1.135
291.66	-0.483
292.03	1.727
292.40	0.301
292.77	0.311
293.13	0.325
293.50	1.337
293.87	1.227
294.24	1.207
294.60	-1.515
294.97	1.821
295.34	0.889
295.71	-1.042
296.08	-1.229
296.44	0.429
296.81	0.997
297.18	0.282
297.55	0.000
297.91	2.650
298.28	-0.548
298.65	-0.697
299.02	2.139
299.38	0.535
299.75	0.000
300.12	1.026
300.48	1.407
300.85	0.917
301.22	2.199
301.59	-0.910
301.95	1.511
302.32	-1.304
302.69	0.612
303.05	-0.122
303.42	1.000
303.79	0.837
304.15	-0.118
304.52	0.583
304.89	1.299
305.25	-0.122
305.62	1.528
305.99	1.885
306.35	1.554
306.72	1.822
307.09	1.816
307.45	0.568
307.82	1.229
308.19	0.112
308.55	0.436
308.92	-0.430
309.29	0.541
309.65	1.273
310.02	0.108
310.38	0.649
310.75	0.307
311.12	1.860
311.48	1.775
311.85	1.648
312.22	0.515
312.58	2.340
312.95	0.714
313.31	1.399
313.68	2.915
314.05	0.989
314.41	-0.503
314.78	-1.499
315.14	1.974
315.51	0.101
315.87	1.258
316.24	2.138
316.61	2.399
316.97	0.995
317.34	1.638
317.70	0.835
318.07	2.239
318.43	0.936
318.80	2.629
319.16	1.689
319.53	0.752
319.89	1.317
320.26	1.176
320.62	2.019
320.99	1.990
321.35	1.675
321.72	1.433
322.08	1.385
322.45	0.990
322.81	2.113
323.18	1.633
323.54	1.848
323.91	2.502
324.27	2.091
324.64	1.005
325.00	2.618
325.37	1.719
325.73	2.275
326.10	0.709
326.46	2.627
326.83	1.957
327.19	2.669
327.56	2.641
327.92	1.784
328.29	1.732
328.65	1.000
329.01	2.827
329.38	2.765
329.74	2.106
330.11	1.723
330.47	2.452
330.84	2.383
331.20	2.527
331.56	0.729
331.93	2.309
332.29	1.918
332.66	2.371
333.02	1.357
333.38	1.703
333.75	1.959
334.11	1.867
334.48	2.295
334.84	1.575
335.20	2.482
335.57	1.354
335.93	2.238
336.29	1.506
336.66	2.291
337.02	2.072
337.38	1.872
337.75	1.844
338.11	1.431
338.47	1.957
338.84	1.906
339.20	1.933
339.56	2.317
339.93	0.617
340.29	2.480
340.65	2.448
341.02	3.120
341.38	2.275
341.74	1.439
342.11	2.730
342.47	2.232
342.83	1.679
343.20	1.793
343.56	1.224
343.92	2.671
344.28	2.271
344.65	1.650
345.01	0.756
345.37	2.243
345.73	1.227
346.10	1.390
346.46	1.950
346.82	1.524
347.19	0.740
347.55	2.006
347.91	2.283
348.27	0.875
348.63	2.342
349.00	2.228
349.36	1.483
349.72	1.990
350.08	1.925
350.45	1.891
350.81	2.229
351.17	1.286
351.53	1.432
351.89	1.374
352.26	2.326
352.62	2.842
352.98	1.820
353.34	1.918
353.70	1.699
354.07	2.124
354.43	1.976
354.79	1.902
355.15	0.719
355.51	1.094
355.87	1.897
356.24	1.509
356.60	2.981
356.96	2.463
357.32	2.296
357.68	0.613
358.04	2.463
358.40	1.392
358.77	1.546
359.13	2.142
359.49	1.965
359.85	2.287
360.21	2.359
360.57	2.259
360.93	2.593
361.29	2.167
361.66	1.448
362.02	1.997
362.38	2.054
362.74	2.198
363.10	1.291
363.46	2.778
363.82	1.093
364.18	1.809
364.54	2.502
364.90	1.957
365.26	1.427
365.62	2.566
365.98	2.845
366.35	2.113
366.71	1.550
367.07	2.752
367.43	2.539
367.79	2.474
368.15	1.280
368.51	2.168
368.87	3.228
369.23	2.596
369.59	2.569
369.95	2.467
370.31	2.813
370.67	1.012
371.03	2.114
371.39	1.414
371.75	2.718
372.11	1.578
372.47	1.880
372.83	2.434
373.19	2.929
373.55	2.604
373.91	2.205
374.27	2.327
374.63	2.692
374.99	3.060
375.35	1.682
375.71	2.836
376.07	2.464
376.42	1.722
376.78	3.007
377.14	1.492
377.50	2.579
377.86	2.471
378.22	3.266
378.58	2.285
378.94	2.219
379.30	2.864
379.66	2.914
380.02	2.496
380.38	2.719
380.74	2.286
381.09	3.046
381.45	3.401
381.81	2.359
382.17	2.569
382.53	2.796
382.89	3.648
383.25	3.371
383.61	3.420
383.97	3.123
384.32	3.066
384.68	3.628
385.04	3.502
385.40	2.921
385.76	2.927
386.12	3.248
386.48	3.403
386.83	3.926
387.19	3.467
387.55	3.028
387.91	3.142
388.27	3.378
388.62	2.945
388.98	3.271
389.34	3.611
389.70	3.837
390.06	3.045
390.42	3.590
390.77	3.091
391.13	3.540
391.49	3.057
391.85	4.302
392.20	3.459
392.56	3.482
392.92	3.537
393.28	3.559
393.64	3.608
393.99	3.077
394.35	4.015
394.71	3.212
395.07	4.206
395.42	3.993
395.78	2.703
396.14	4.424
396.50	3.976
396.85	4.257
397.21	3.888
397.57	3.891
397.92	3.923
398.28	3.833
398.64	3.986
399.00	4.719
399.35	3.777
399.71	4.007
400.07	4.000
400.42	4.380
400.78	4.055
401.14	4.012
401.49	3.597
401.85	3.722
402.21	4.470
402.57	4.126
402.92	4.154
403.28	4.167
403.63	3.715
403.99	4.288
404.35	3.563
404.70	4.740
405.06	5.075
405.42	4.551
405.77	4.695
406.13	4.032
406.49	4.314
406.84	4.379
407.20	4.711
407.55	4.370
407.91	3.692
408.27	4.596
408.62	4.149
408.98	4.548
409.34	3.656
409.69	4.411
410.05	4.184
410.40	3.801
410.76	4.564
411.11	3.678
411.47	4.412
411.83	4.707
412.18	3.960
412.54	4.210
412.89	4.982
413.25	3.896
413.60	4.374
413.96	3.512
414.31	4.220
414.67	3.873
415.03	4.010
415.38	4.684
415.74	4.832
416.09	4.412
416.45	3.505
416.80	4.811
417.16	4.917
417.51	5.121
417.87	3.883
418.22	4.425
418.58	4.750
418.93	5.028
419.29	5.082
419.64	4.209
420.00	4.739
420.35	4.672
420.71	4.802
421.06	5.562
421.42	3.220
421.77	4.355
422.12	4.365
422.48	4.115
422.83	5.068
423.19	4.287
423.54	4.553
423.90	3.991
424.25	4.355
424.61	4.343
424.96	5.091
425.31	4.304
425.67	3.668
426.02	4.246
426.38	4.840
426.73	4.383
427.09	4.596
427.44	4.375
427.79	3.895
428.15	5.147
428.50	4.575
428.85	4.556
429.21	4.095
429.56	4.271
429.92	4.609
430.27	4.237
430.62	4.807
430.98	4.443
431.33	4.589
431.68	5.040
432.04	5.428
432.39	4.957
432.74	4.017
433.10	5.234
433.45	4.893
433.80	4.591
434.16	4.567
434.51	4.548
434.86	5.331
435.22	4.566
435.57	4.406
435.92	4.748
436.28	4.570
436.63	4.353
436.98	3.952
437.34	4.903
437.69	4.667
438.04	4.878
438.39	4.753
438.75	5.006
439.10	5.053
439.45	3.802
439.81	4.819
440.16	4.429
440.51	5.235
440.86	4.858
441.22	3.925
441.57	5.105
441.92	5.166
442.27	5.249
442.63	5.365
442.98	4.571
443.33	4.558
443.68	4.325
444.03	5.108
444.39	5.091
444.74	4.736
445.09	4.331
445.44	4.277
445.79	4.946
446.15	5.531
446.50	3.974
446.85	4.926
447.20	4.750
447.55	4.862
447.91	4.941
448.26	4.804
448.61	4.244
448.96	5.434
449.31	4.679
449.66	4.694
450.02	4.598
450.37	4.522
450.72	4.576
451.07	4.777
451.42	4.337
451.77	5.027
452.12	4.887
452.47	5.038
452.83	4.193
453.18	4.175
453.53	5.037
453.88	5.084
454.23	4.655
454.58	4.786
454.93	4.975
455.28	3.760
455.63	4.791
455.98	5.000
456.34	4.320
456.69	5.441
457.04	5.040
457.39	4.665
457.74	4.725
458.09	4.698
458.44	5.485
458.79	4.933
459.14	4.735
459.49	5.210
459.84	5.171
460.19	4.356
460.54	4.900
460.89	4.484
461.24	5.100
461.59	5.569
461.94	4.710
462.29	5.360
462.64	4.545
462.99	4.552
463.34	4.591
463.69	4.835
464.04	5.038
464.39	4.779
464.74	5.378
465.09	5.171
465.44	4.738
465.79	5.358
466.14	5.351
466.49	4.145
466.84	5.222
467.19	5.611
467.54	4.114
467.89	5.425
468.24	5.404
468.59	5.434
468.94	4.566
469.29	4.483
469.64	5.256
469.99	5.874
470.34	4.409
470.68	5.378
471.03	5.988
471.38	4.375
471.73	5.035
472.08	4.752
472.43	5.084
472.78	5.600
473.13	4.307
473.48	5.616
473.83	4.963
474.17	4.904
474.52	6.202
474.87	5.012
475.22	4.071
475.57	4.778
475.92	5.130
476.27	5.200
476.61	4.282
476.96	4.919
477.31	5.005
477.66	4.317
478.01	5.457
478.36	5.186
478.70	4.965
479.05	4.976
479.40	5.130
479.75	5.199
480.10	5.159
480.45	4.932
480.79	5.232
481.14	4.767
481.49	5.276
481.84	5.455
482.19	5.482
482.53	5.350
482.88	5.173
483.23	5.305
483.58	5.689
483.92	4.682
484.27	5.095
484.62	4.492
484.97	5.183
485.31	5.312
485.66	4.929
486.01	4.871
486.36	5.207
486.70	5.423
487.05	4.816
487.40	5.235
487.75	5.166
488.09	4.849
488.44	5.311
488.79	5.412
489.13	5.553
489.48	5.139
489.83	4.934
490.17	5.137
490.52	5.978
490.87	5.589
491.22	4.671
491.56	5.509
491.91	5.391
492.26	5.189
492.60	5.376
492.95	5.188
493.30	4.907
493.64	4.654
493.99	5.402
494.34	4.952
494.68	5.243
495.03	5.354
495.37	4.916
495.72	5.108
496.07	5.537
496.41	5.419
496.76	5.799
497.11	4.993
497.45	5.556
497.80	5.353
498.14	5.894
498.49	4.972
498.84	5.291
499.18	4.971
499.53	5.943
499.87	4.681
500.22	5.784
500.56	5.403
500.91	5.172
501.26	5.483
501.60	5.152
501.95	6.039
502.29	5.479
502.64	5.705
502.98	5.271
503.33	5.216
503.67	5.603
504.02	5.167
504.36	5.490
504.71	4.863
505.06	4.943
505.40	5.938
505.75	4.675
506.09	5.612
506.44	5.363
506.78	5.569
507.13	4.943
507.47	5.686
507.82	5.627
508.16	5.596
508.51	5.873
508.85	5.435
509.19	4.814
509.54	5.655
509.88	5.957
510.23	4.874
510.57	6.138
510.92	5.532
511.26	5.423
511.61	4.752
511.95	5.711
512.30	5.772
512.64	4.897
512.98	5.171
513.33	5.766
513.67	6.421
514.02	5.089
514.36	6.039
514.70	6.112
515.05	5.946
515.39	4.960
515.74	5.701
516.08	5.994
516.42	6.119
516.77	6.066
517.11	6.407
517.46	5.801
517.80	5.957
518.14	5.072
518.49	5.977
518.83	5.579
519.17	6.690
519.52	5.668
519.86	6.153
520.20	5.379
520.55	5.908
520.89	5.135
521.23	5.922
521.58	5.517
521.92	5.636
522.26	5.905
522.61	5.323
522.95	5.488
523.29	5.643
523.64	5.934
523.98	6.174
524.32	5.783
524.66	5.963
525.01	5.459
525.35	6.057
525.69	5.530
526.04	6.070
526.38	6.556
526.72	5.300
527.06	5.534
527.41	5.281
527.75	5.281
528.09	5.493
528.43	6.361
528.78	5.779
529.12	6.658
529.46	6.121
529.80	5.746
530.15	6.504
530.49	5.951
530.83	7.138
531.17	5.522
531.51	5.559
531.86	5.859
532.20	5.466
532.54	6.684
532.88	5.863
533.22	5.281
533.57	5.875
533.91	5.930
534.25	6.348
534.59	5.559
534.93	5.165
535.27	6.608
535.62	6.138
535.96	6.335
536.30	5.497
536.64	7.039
536.98	6.638
537.32	5.460
537.66	5.703
538.01	6.529
538.35	6.081
538.69	5.414
539.03	6.500
539.37	5.323
539.71	5.670
540.05	5.278
540.39	6.233
540.73	6.220
541.07	5.464
541.42	4.659
541.76	5.581
542.10	6.415
542.44	6.262
542.78	6.852
543.12	6.382
543.46	5.685
543.80	5.753
544.14	5.574
544.48	6.299
544.82	5.819
545.16	6.774
545.50	5.316
545.84	5.424
546.18	6.657
546.52	5.832
546.86	5.271
547.20	7.032
547.54	5.716
547.88	5.906
548.22	5.570
548.56	4.876
548.90	5.458
549.24	5.466
549.58	5.716
549.92	6.219
550.26	6.503
550.60	5.619
550.94	5.547
551.28	5.794
551.62	5.613
551.96	6.874
552.30	6.620
552.64	6.615
552.98	7.218
553.32	5.628
553.66	5.407
554.00	6.183
554.34	5.632
554.68	5.921
555.02	6.368
555.36	6.614
555.69	5.516
556.03	5.965
556.37	5.690
556.71	5.870
557.05	5.765
557.39	6.162
557.73	6.492
558.07	5.878
558.41	5.310
558.75	5.475
559.08	4.514
559.42	5.666
559.76	5.291
560.10	6.637
560.44	6.792
560.78	5.637
561.12	5.659
561.45	5.959
561.79	5.645
562.13	5.049
562.47	5.742
562.81	4.314
563.15	6.718
563.48	6.496
563.82	5.477
564.16	5.071
564.50	6.048
564.84	6.283
565.17	5.769
565.51	7.040
565.85	6.288
566.19	5.204
566.52	6.132
566.86	5.183
567.20	6.235
567.54	6.675
567.88	5.472
568.21	5.817
568.55	5.620
568.89	5.716
569.23	5.460
569.56	5.717
569.90	5.940
570.24	6.088
570.57	5.800
570.91	5.814
571.25	5.869
571.59	5.432
571.92	5.595
572.26	5.752
572.60	5.895
572.93	5.420
573.27	5.671
573.61	5.219
573.95	5.535
574.28	5.722
574.62	5.796
574.96	5.234
575.29	5.843
575.63	5.628
575.97	5.313
576.30	5.426
576.64	5.744
576.98	5.574
577.31	5.554
577.65	5.636
577.98	5.460
578.32	5.409
578.66	5.483
578.99	5.207
579.33	5.300
579.67	5.453
580.00	5.481
580.34	5.186
580.67	5.443
581.01	5.530
581.35	5.470
581.68	5.267
582.02	5.948
582.35	5.817
582.69	5.353
583.02	5.570
583.36	5.648
583.70	5.376
584.03	5.496
584.37	5.521
584.70	5.340
585.04	5.316
585.37	5.274
585.71	5.926
586.04	5.522
586.38	5.373
586.72	5.665
587.05	5.353
587.39	5.709
587.72	5.628
588.06	5.612
588.39	5.355
588.73	5.673
589.06	5.754
589.40	5.703
589.73	5.843
590.07	5.171
590.40	5.904
590.73	5.238
591.07	5.451
591.40	5.373
591.74	5.995
592.07	5.360
592.41	5.648
592.74	5.919
593.08	6.008
593.41	5.625
593.75	4.946
594.08	5.787
594.41	5.952
594.75	5.889
595.08	5.602
595.42	5.708
595.75	5.329
596.09	5.161
596.42	5.646
596.75	5.476
597.09	6.545
597.42	5.674
597.75	5.802
598.09	6.236
598.42	5.966
598.76	5.523
599.09	5.525
599.42	5.075
599.76	5.700
600.09	5.573
600.42	6.229
600.76	5.687
601.09	5.241
601.42	4.867
601.76	5.763
602.09	5.235
602.42	5.556
602.76	4.736
603.09	5.685
603.42	5.681
603.76	5.784
604.09	5.246
604.42	5.246
604.76	5.582
605.09	5.741
605.42	6.028
605.75	6.123
606.09	5.147
606.42	5.237
606.75	5.668
607.09	5.470
607.42	5.634
607.75	5.430
608.08	6.010
608.42	4.683
608.75	5.607
609.08	5.553
609.41	5.431
609.75	5.607
610.08	5.784
610.41	5.301
610.74	5.851
611.07	5.680
611.41	4.892
611.74	6.272
612.07	6.122
612.40	6.290
612.73	5.816
613.07	5.449
613.40	6.787
613.73	6.158
614.06	5.162
614.39	5.355
614.72	4.972
615.06	5.272
615.39	5.372
615.72	5.486
616.05	5.080
616.38	5.630
616.71	5.465
617.05	5.971
617.38	5.573
617.71	5.037
618.04	4.658
618.37	5.409
618.70	5.802
619.03	6.161
619.36	5.144
619.69	6.174
620.03	5.234
620.36	5.767
620.69	4.953
621.02	5.251
621.35	6.452
621.68	5.082
622.01	4.693
622.34	5.978
622.67	5.391
623.00	5.126
623.33	5.522
623.66	4.948
623.99	5.263
624.32	5.134
624.65	5.445
624.99	4.854
625.32	4.940
625.65	6.061
625.98	5.164
626.31	5.710
626.64	6.276
626.97	5.137
627.30	5.957
627.63	3.886
627.96	5.396
628.29	4.871
628.62	4.871
628.95	6.398
629.28	4.981
629.61	4.809
629.94	5.482
630.26	5.268
630.59	7.035
630.92	5.606
631.25	6.351
631.58	5.079
631.91	3.404
632.24	5.000
632.57	4.889
632.90	6.092
633.23	5.724
633.56	4.795
633.89	5.307
634.22	5.077
634.55	6.010
634.88	5.200
635.20	4.869
635.53	6.870
635.86	3.778
636.19	5.495
636.52	5.018
636.85	5.054
637.18	2.750
637.51	5.824
637.83	4.261
638.16	4.737
638.49	4.414
638.82	5.405
639.15	6.485
639.48	4.540
639.81	5.947
640.13	5.676
640.46	5.840
640.79	6.723
641.12	4.513
641.45	4.017
641.77	4.491
642.10	5.287
642.43	4.856
642.76	4.724
643.09	4.127
643.41	4.444
643.74	7.313
644.07	7.176
644.40	4.700
644.73	6.271
645.05	3.339
645.38	5.464
645.71	4.467
646.04	4.034
646.36	2.618
646.69	5.709
647.02	6.318
647.35	5.054
647.67	4.745
648.00	6.327
648.33	7.926
648.66	3.710
648.98	6.051
649.31	6.308
649.64	6.250
649.96	4.553
650.29	5.738
650.62	5.508
650.94	5.902
651.27	6.066
651.60	4.325
651.92	5.993
652.25	5.676
652.58	3.918
652.90	5.457
653.23	5.323
653.56	3.679
653.88	4.262
654.21	5.705
654.54	5.814
654.86	4.173
655.19	5.158
655.52	5.291
655.84	4.800
656.17	5.260
656.49	7.406
656.82	7.730
657.15	6.013
657.47	4.323
657.80	3.254
658.13	4.061
658.45	5.262
658.78	5.012
659.10	5.554
659.43	5.205
659.75	5.468
660.08	5.312
660.41	4.675
660.73	4.620
661.06	6.812
661.38	6.786
661.71	5.736
662.03	5.242
662.36	5.544
662.68	3.376
663.01	5.096
663.33	4.989
663.66	3.863
663.98	3.125
664.31	3.132
664.63	5.088
664.96	3.688
665.28	4.121
665.61	2.537
665.93	6.790
666.26	6.680
666.58	7.277
666.91	2.227
667.23	5.482
667.56	5.442
667.88	7.466
668.21	5.069
668.53	3.505
668.86	5.081
669.18	5.251
669.50	2.103
669.83	2.676
670.15	6.054
670.48	3.738
670.80	3.872
671.13	4.966
671.45	1.577
671.77	3.640
672.10	6.114
672.42	4.982
672.75	2.364
673.07	3.423
673.39	3.643
673.72	5.906
674.04	2.972
674.37	4.536
674.69	5.533
675.01	3.404
675.34	4.772
675.66	4.968
675.98	4.185
676.31	3.620
676.63	5.287
676.95	4.646
677.28	4.408
677.60	4.525
677.92	3.744
678.25	4.158
678.57	5.967
678.89	2.516
679.22	3.983
679.54	6.509
679.86	2.800
680.18	4.183
680.51	2.421
680.83	4.952
681.15	3.276
681.48	5.477
681.80	4.637
682.12	4.427
682.44	6.287
682.77	1.948
683.09	6.499
683.41	8.186
683.73	4.110
684.06	6.882
684.38	3.766
684.70	3.909
685.02	5.512
685.34	5.653
685.67	3.030
685.99	2.836
686.31	4.129
686.63	4.433
686.96	4.621
687.28	3.276
687.60	4.102
687.92	1.556
688.24	4.331
688.56	3.607
688.89	4.701
689.21	5.470
689.53	5.057
689.85	3.563
690.17	4.933
690.49	3.002
690.82	2.410
691.14	2.594
691.46	5.987
691.78	3.744
692.10	6.780
692.42	0.667
692.74	4.077
693.06	4.270
693.39	5.369
693.71	5.418
694.03	4.968
694.35	3.612
694.67	3.310
694.99	2.813
695.31	5.102
695.63	2.296
695.95	3.474
696.27	5.486
696.59	3.209
696.91	3.090
697.23	5.729
697.56	2.885
697.88	3.378
698.20	4.069
698.52	5.381
698.84	2.427
699.16	6.667
699.48	1.750
699.80	2.757
700.12	6.045
700.44	2.793
700.76	3.790
701.08	3.779
701.40	-0.906
701.72	3.395
702.04	3.846
702.36	4.819
702.68	1.796
703.00	3.478
703.32	2.865
703.64	7.059
703.96	6.977
704.28	2.071
704.60	1.899
704.91	5.079
705.23	4.531
705.55	2.365
705.87	4.437
706.19	2.431
706.51	0.694
706.83	5.902
707.15	3.185
707.47	4.959
707.79	3.608
708.11	1.272
708.43	9.975
708.74	4.935
709.06	0.279
709.38	3.161
709.70	2.187
710.02	9.509
710.34	0.990
710.66	1.587
710.98	5.678
711.29	0.968
711.61	-0.639
711.93	1.311
712.25	1.993
712.57	4.181
712.89	7.554
713.20	6.529
713.52	1.119
713.84	-2.491
714.16	2.623
714.48	4.444
714.80	4.615
715.11	4.611
715.43	7.229
715.75	4.984
716.07	2.295
716.39	4.348
716.70	4.878
717.02	5.556
717.34	4.580
717.66	4.149
717.97	1.639
718.29	0.420
718.61	13.095
718.93	3.584
719.24	4.779
719.56	2.264
719.88	5.455
720.20	-0.375
720.51	4.887
720.83	0.803
721.15	1.639
721.46	1.569
721.78	3.065
722.10	0.800
722.42	3.306
722.73	4.382
723.05	8.032
723.37	3.529
723.68	3.239
724.00	10.569
724.32	5.350
724.63	-2.075
724.95	11.983
725.27	2.632
725.58	2.155
725.90	3.571
726.22	8.487
726.53	6.844
726.85	-2.353
727.16	-1.504
727.48	2.308
727.80	1.230
728.11	2.521
728.43	2.479
728.74	6.250
729.06	5.303
729.38	5.058
729.69	3.543
730.01	2.362
730.32	1.195
730.64	5.861
730.96	4.104
731.27	1.786
731.59	2.894
731.90	6.135
732.22	3.681
732.53	7.285
732.85	-0.336
733.16	4.348
733.48	2.439
733.80	2.135
734.11	2.759
734.43	2.041
734.74	6.231
735.06	3.135
735.37	5.810
735.69	-0.968
736.00	1.684
736.32	6.291
736.63	2.069
736.95	1.812
737.26	3.974
737.58	8.273
737.89	6.452
738.21	3.008
738.52	3.462
738.83	7.422
739.15	2.564
739.46	3.226
739.78	4.545
740.09	2.448
740.41	1.399
740.72	7.664
741.04	-1.587
741.35	-4.329
741.66	2.778
741.98	-3.333
742.29	1.408
742.61	1.070
742.92	3.271
743.23	4.386
743.55	0.450
743.86	11.556
744.18	5.238
744.49	7.389
744.80	8.629
745.12	7.216
745.43	2.010
745.74	3.398
746.06	0.976
746.37	12.775
746.68	2.488
747.00	3.141
747.31	2.404
747.62	2.304
747.94	2.183
748.25	6.512
748.56	6.190
748.88	-2.174
749.19	1.878
749.50	9.804
749.82	2.667
750.13	3.524
750.44	3.659
750.75	3.200
751.07	5.714
751.38	1.845
751.69	-0.763
752.01	5.769
752.32	1.167
752.63	0.769
752.94	-0.794
753.26	4.783
753.57	4.464
753.88	-1.724
754.19	2.490
754.51	2.734
754.82	-0.395
755.13	2.881
755.44	2.479
755.75	4.115
756.07	-3.213
756.38	2.734
756.69	1.444
757.00	1.742
757.31	5.034
757.63	9.346
757.94	3.468
758.25	4.070
758.56	7.008
758.87	3.977
759.18	-1.000
759.50	4.270
759.81	-2.555
760.12	-0.338
760.43	3.560
760.74	7.187
761.05	4.494
761.36	2.994
761.67	0.296
761.99	0.645
762.30	6.522
762.61	2.642
762.92	1.794
763.23	5.687
763.54	0.000
763.85	8.439
764.16	2.041
764.47	5.085
764.78	6.742
765.10	3.597
765.41	2.581
765.72	4.403
766.03	-0.707
766.34	1.504
766.65	6.478
766.96	-0.500
767.27	4.687
767.58	1.744
767.89	7.742
768.20	4.908
768.51	1.639
768.82	2.703
769.13	0.000
769.44	7.895
769.75	3.463
770.06	2.752
770.37	0.000
770.68	7.812
770.99	5.446
771.30	0.971
771.61	2.315
771.92	2.597
772.23	4.673
772.54	0.532
772.85	-2.367
773.16	5.488
773.47	4.217
773.78	10.989
774.09	7.333
774.39	4.321
774.70	-1.342
775.01	2.174
775.32	3.731
775.63	-1.653
775.94	6.015
776.25	15.000
776.56	5.738
776.87	13.274
777.18	7.080
777.48	1.818
777.79	-10.435
778.10	-4.587
778.41	1.695
778.72	2.479
779.03	0.746
779.34	1.504
779.65	4.575
779.95	4.348
780.26	-2.721
780.57	-7.759
780.88	-6.481
781.19	-15.152
781.50	-4.800
781.80	5.882
782.11	2.564
782.42	4.217
782.73	-12.409
783.04	0.676
783.34	-6.061
783.65	0.000
783.96	5.691
784.27	13.675
784.57	0.813
784.88	-4.878
785.19	7.018
785.50	-6.186
785.81	-4.762
786.11	-5.882
786.42	0.909
786.73	6.306
787.04	15.842
787.34	-0.952
787.65	-0.952
787.96	-6.863
788.26	0.901
788.57	8.065
788.88	0.000
789.19	3.419
789.49	-1.681
789.80	-10.256
790.11	10.619
790.41	9.091
790.72	5.660
791.03	-9.722
791.33	-18.421
791.64	-1.075
791.95	-6.667
792.25	-7.143
792.56	2.439
792.87	18.367
793.17	-2.632
793.48	-12.162
793.79	-8.451
794.09	1.266
794.40	-4.255
794.70	8.411
795.01	-1.754
795.32	5.455
795.62	4.464
795.93	-16.495
796.23	-8.791
796.54	1.053
796.85	-12.329
797.15	-5.556
797.46	1.370
797.76	12.676
798.07	8.750
798.37	4.412
798.68	-2.857
798.99	20.000
799.29	-1.316
799.60	0.000
799.90	-8.333
800.21	-6.250
800.51	7.937
800.82	-11.475
801.12	-1.754
801.43	-16.901
801.73	-13.559
802.04	-3.279
802.34	-14.545
802.65	-13.462
802.95	-1.852
803.26	-45.000
803.56	5.769
803.87	-63.158
804.17	6.452
804.48	13.846
804.78	-33.333
805.09	2.326
805.39	-9.375
805.70	-28.302
806.00	12.281
806.30	9.459
806.61	2.941
806.91	-2.469
807.22	4.000
807.52	5.970
807.83	-1.613
808.13	-17.460
808.43	-14.545
808.74	-1.515
809.04	-3.774
809.35	-2.740
809.65	1.754
809.95	13.235
810.26	3.922
810.56	-14.000
810.86	-2.041
811.17	-42.857
811.47	-5.769
811.77	3.226
812.08	-60.526
812.38	-11.905
812.69	0.000
812.99	-51.613
813.29	-33.333
813.59	-33.333
813.90	-8.511
814.20	-20.930
814.50	-12.500
814.81	5.000
815.11	-26.829
815.41	-26.667
815.72	14.286
816.02	-30.556
816.32	-15.385
816.62	5.405
816.93	-14.706
817.23	-6.522
817.53	2.941
817.84	-14.706
818.14	-28.125
818.44	-31.034
818.74	-35.484
819.04	-29.630
819.35	-10.000
819.65	-24.000
819.95	20.000
820.25	-48.000
820.56	0.000
820.86	-12.500
821.16	-4.255
821.46	-5.172
821.76	12.821
822.07	-55.000
822.37	-11.628
822.67	-53.333
822.97	-21.622
823.27	-2.703
823.57	28.000
823.88	13.514
824.18	-57.143
824.48	-19.231
824.78	-61.538
825.08	-4.348
825.38	-50.000
825.69	8.333
825.99	-25.000
826.29	-8.108
826.59	5.882
826.89	12.000
827.19	-17.143
827.49	0.000
827.79	-9.375
828.09	-6.667
828.39	30.435
828.70	-75.862
829.00	3.448
829.30	-11.111
829.60	25.000
829.90	-16.667
830.20	-23.077
830.50	-71.429
830.80	-39.286
831.10	2.564
831.40	-19.048
831.70	11.765
832.00	20.833
832.30	-63.158
832.60	6.250
832.90	-133.333
833.20	-82.353
833.50	-40.000
833.80	-93.333
834.10	-15.000
834.40	0.000
834.70	-33.333
835.00	-23.077
835.30	-25.000
835.60	-17.241
835.90	-100.000
836.20	-154.545
836.50	-141.667
836.80	-11.429
837.10	25.714
837.40	-11.765
837.70	-45.455
838.00	4.167
838.30	-43.750
838.60	19.048
838.90	-25.000
839.19	-8.696
839.49	-21.739
839.79	-5.556
840.09	-47.826
840.39	-22.727
840.69	0.000
840.99	-15.789
841.29	-31.250
841.59	14.286
841.88	-22.222
842.18	-20.833
842.48	-41.176
842.78	34.483
843.08	-42.857
843.38	-38.462
843.68	-55.556
843.97	-76.923
844.27	-72.727
844.57	-200.000
844.87	-12.000
845.17	-140.000
845.47	-14.286
845.76	-88.889
846.06	0.000
846.36	-325.000
846.66	-100.000
846.96	-63.158
847.25	-41.667
847.55	-75.000
847.85	-6.667
848.15	-100.000
848.44	7.692
848.74	63.158
849.04	433.333
849.34	-44.444
849.63	-78.947
849.93	0.000
850.23	-60.000
850.53	-4.762
850.82	0.000
851.12	-5.263
851.42	-650.000
851.71	50.000
852.01	16.667
852.31	-41.176
852.61	-13.333
852.90	-42.857
853.20	-16.667
853.50	-27.778
853.79	-21.053
854.09	-66.667
854.39	10.714
854.68	-26.087
854.98	-175.000
855.28	10.345
855.57	-37.500
855.87	-50.000
856.17	-13.333
856.46	-20.690
856.76	26.667
857.05	-52.941
857.35	-76.923
857.65	-9.091
857.94	22.222
858.24	-57.143
858.53	-71.429
858.83	16.667
859.13	-155.556
859.42	47.619
859.72	-25.000
860.01	-233.333
860.31	25.000
860.60	-420.000
860.90	-44.444
861.20	-100.000
861.49	-185.714
861.79	-5.882
862.08	-600.000
862.38	-108.333
862.67	7.692
862.97	-35.294
863.26	60.000
863.56	11.765
863.85	100.000
864.15	-30.000
864.44	-46.154
864.74	-40.000
865.03	-275.000
865.33	-300.000
865.62	-23.529
865.92	-300.000
866.21	-57.143
866.51	-33.333
866.80	-600.000
867.10	100.000
867.39	-17.647
867.69	34.783
867.98	-114.286
868.27	-160.000
868.57	-68.750
868.86	-81.818
869.16	17.647
869.45	-133.333
869.75	-100.000
870.04	400.000
870.33	-58.333
870.63	60.000
870.92	-44.444
871.22	-50.000
871.51	18.182
871.80	33.333
872.10	-30.000
>>>>>End Processed Spectral Data<<<<<
